time [h]	Qevap [W]
0	16800.00
1	16800.00
2	16800.00
3	0.00
4	0.00
5	0.00
6	0.00
7	16800.00
8	16800.00
9	16800.00
10	16800.00
11	0.00
12	0.00
13	16800.00
14	16800.00
15	16800.00
16	16800.00
17	0.00
18	0.00
19	16800.00
20	16800.00
21	16800.00
22	16800.00
23	16800.00
24	16800.00
25	0.00
26	0.00
27	16800.00
28	16800.00
29	16800.00
30	16800.00
31	0.00
32	0.00
33	16800.00
34	16800.00
35	16800.00
36	16800.00
37	16800.00
38	0.00
39	0.00
40	16800.00
41	16800.00
42	16800.00
43	16800.00
44	16800.00
45	0.00
46	0.00
47	16800.00
48	16800.00
49	16800.00
50	16800.00
51	0.00
52	0.00
53	0.00
54	0.00
55	16800.00
56	16800.00
57	16800.00
58	16800.00
59	16800.00
60	16800.00
61	16800.00
62	0.00
63	0.00
64	0.00
65	0.00
66	16800.00
67	16800.00
68	16800.00
69	16800.00
70	16800.00
71	16800.00
72	0.00
73	0.00
74	0.00
75	0.00
76	0.00
77	0.00
78	0.00
79	16800.00
80	16800.00
81	16800.00
82	16800.00
83	16800.00
84	0.00
85	0.00
86	0.00
87	16800.00
88	16800.00
89	16800.00
90	16800.00
91	0.00
92	0.00
93	16800.00
94	16800.00
95	16800.00
96	16800.00
97	16800.00
98	0.00
99	0.00
100	0.00
101	0.00
102	0.00
103	0.00
104	0.00
105	16800.00
106	16800.00
107	16800.00
108	16800.00
109	16800.00
110	0.00
111	0.00
112	16800.00
113	16800.00
114	16800.00
115	16800.00
116	16800.00
117	16800.00
118	0.00
119	0.00
120	0.00
121	0.00
122	0.00
123	0.00
124	0.00
125	0.00
126	0.00
127	0.00
128	16800.00
129	16800.00
130	16800.00
131	16800.00
132	0.00
133	0.00
134	0.00
135	0.00
136	0.00
137	16800.00
138	16800.00
139	16800.00
140	16800.00
141	16800.00
142	0.00
143	0.00
144	0.00
145	0.00
146	0.00
147	0.00
148	0.00
149	0.00
150	0.00
151	16800.00
152	16800.00
153	16800.00
154	16800.00
155	16800.00
156	16800.00
157	0.00
158	0.00
159	0.00
160	0.00
161	0.00
162	0.00
163	0.00
164	16800.00
165	16800.00
166	16800.00
167	16800.00
168	0.00
169	0.00
170	0.00
171	0.00
172	0.00
173	0.00
174	0.00
175	16800.00
176	16800.00
177	16800.00
178	16800.00
179	16800.00
180	0.00
181	0.00
182	16800.00
183	16800.00
184	16800.00
185	16800.00
186	16800.00
187	0.00
188	0.00
189	0.00
190	16800.00
191	16800.00
192	16800.00
193	16800.00
194	0.00
195	0.00
196	0.00
197	0.00
198	0.00
199	16800.00
200	16800.00
201	16800.00
202	16800.00
203	0.00
204	0.00
205	16800.00
206	16800.00
207	16800.00
208	16800.00
209	0.00
210	0.00
211	16800.00
212	16800.00
213	16800.00
214	16800.00
215	0.00
216	0.00
217	0.00
218	0.00
219	0.00
220	0.00
221	0.00
222	16800.00
223	16800.00
224	16800.00
225	16800.00
226	16800.00
227	16800.00
228	0.00
229	0.00
230	16800.00
231	16800.00
232	16800.00
233	16800.00
234	0.00
235	0.00
236	16800.00
237	16800.00
238	16800.00
239	16800.00
240	16800.00
241	0.00
242	0.00
243	16800.00
244	16800.00
245	16800.00
246	16800.00
247	0.00
248	0.00
249	16800.00
250	16800.00
251	16800.00
252	16800.00
253	0.00
254	0.00
255	16800.00
256	16800.00
257	16800.00
258	16800.00
259	0.00
260	0.00
261	16800.00
262	16800.00
263	16800.00
264	16800.00
265	16800.00
266	0.00
267	0.00
268	16800.00
269	16800.00
270	16800.00
271	16800.00
272	0.00
273	0.00
274	16800.00
275	16800.00
276	16800.00
277	16800.00
278	16800.00
279	16800.00
280	16800.00
281	0.00
282	0.00
283	16800.00
284	16800.00
285	16800.00
286	16800.00
287	0.00
288	0.00
289	16800.00
290	16800.00
291	16800.00
292	16800.00
293	0.00
294	0.00
295	16800.00
296	16800.00
297	16800.00
298	16800.00
299	16800.00
300	0.00
301	0.00
302	16800.00
303	16800.00
304	16800.00
305	16800.00
306	16800.00
307	0.00
308	0.00
309	16800.00
310	16800.00
311	16800.00
312	16800.00
313	16800.00
314	0.00
315	0.00
316	16800.00
317	16800.00
318	16800.00
319	16800.00
320	16800.00
321	0.00
322	0.00
323	16800.00
324	16800.00
325	16800.00
326	16800.00
327	16800.00
328	0.00
329	0.00
330	16800.00
331	16800.00
332	16800.00
333	16800.00
334	16800.00
335	0.00
336	0.00
337	16800.00
338	16800.00
339	16800.00
340	16800.00
341	16800.00
342	16800.00
343	0.00
344	0.00
345	16800.00
346	16800.00
347	16800.00
348	16800.00
349	16800.00
350	0.00
351	0.00
352	16800.00
353	16800.00
354	16800.00
355	16800.00
356	0.00
357	0.00
358	16800.00
359	16800.00
360	16800.00
361	16800.00
362	16800.00
363	16800.00
364	0.00
365	0.00
366	16800.00
367	16800.00
368	16800.00
369	16800.00
370	16800.00
371	0.00
372	0.00
373	16800.00
374	16800.00
375	16800.00
376	16800.00
377	16800.00
378	16800.00
379	0.00
380	0.00
381	16800.00
382	16800.00
383	16800.00
384	16800.00
385	16800.00
386	16800.00
387	16800.00
388	0.00
389	0.00
390	16800.00
391	16800.00
392	16800.00
393	16800.00
394	16800.00
395	0.00
396	0.00
397	16800.00
398	16800.00
399	16800.00
400	16800.00
401	16800.00
402	0.00
403	0.00
404	16800.00
405	16800.00
406	16800.00
407	16800.00
408	0.00
409	0.00
410	16800.00
411	16800.00
412	16800.00
413	16800.00
414	16800.00
415	16800.00
416	0.00
417	0.00
418	16800.00
419	16800.00
420	16800.00
421	16800.00
422	0.00
423	0.00
424	16800.00
425	16800.00
426	16800.00
427	16800.00
428	0.00
429	0.00
430	16800.00
431	16800.00
432	16800.00
433	16800.00
434	16800.00
435	0.00
436	0.00
437	0.00
438	0.00
439	0.00
440	16800.00
441	16800.00
442	16800.00
443	16800.00
444	16800.00
445	16800.00
446	0.00
447	0.00
448	0.00
449	0.00
450	16800.00
451	16800.00
452	16800.00
453	16800.00
454	0.00
455	0.00
456	16800.00
457	16800.00
458	16800.00
459	0.00
460	0.00
461	0.00
462	0.00
463	16800.00
464	16800.00
465	16800.00
466	16800.00
467	16800.00
468	0.00
469	0.00
470	16800.00
471	16800.00
472	16800.00
473	16800.00
474	16800.00
475	0.00
476	0.00
477	16800.00
478	16800.00
479	16800.00
480	16800.00
481	0.00
482	0.00
483	0.00
484	0.00
485	0.00
486	0.00
487	16800.00
488	16800.00
489	16800.00
490	16800.00
491	0.00
492	0.00
493	16800.00
494	16800.00
495	16800.00
496	16800.00
497	0.00
498	0.00
499	16800.00
500	16800.00
501	16800.00
502	16800.00
503	16800.00
504	16800.00
505	0.00
506	0.00
507	0.00
508	0.00
509	0.00
510	0.00
511	0.00
512	16800.00
513	16800.00
514	16800.00
515	16800.00
516	16800.00
517	16800.00
518	16800.00
519	0.00
520	0.00
521	16800.00
522	16800.00
523	16800.00
524	16800.00
525	0.00
526	0.00
527	16800.00
528	16800.00
529	16800.00
530	16800.00
531	0.00
532	0.00
533	0.00
534	0.00
535	16800.00
536	16800.00
537	16800.00
538	16800.00
539	16800.00
540	0.00
541	0.00
542	16800.00
543	16800.00
544	16800.00
545	16800.00
546	0.00
547	0.00
548	16800.00
549	16800.00
550	16800.00
551	16800.00
552	0.00
553	0.00
554	16800.00
555	16800.00
556	16800.00
557	16800.00
558	16800.00
559	0.00
560	0.00
561	16800.00
562	16800.00
563	16800.00
564	16800.00
565	16800.00
566	16800.00
567	16800.00
568	0.00
569	0.00
570	16800.00
571	16800.00
572	16800.00
573	16800.00
574	16800.00
575	0.00
576	0.00
577	16800.00
578	16800.00
579	16800.00
580	16800.00
581	16800.00
582	16800.00
583	0.00
584	0.00
585	16800.00
586	16800.00
587	16800.00
588	16800.00
589	16800.00
590	16800.00
591	0.00
592	0.00
593	16800.00
594	16800.00
595	16800.00
596	16800.00
597	0.00
598	0.00
599	16800.00
600	16800.00
601	16800.00
602	16800.00
603	16800.00
604	0.00
605	0.00
606	16800.00
607	16800.00
608	16800.00
609	16800.00
610	16800.00
611	0.00
612	0.00
613	16800.00
614	16800.00
615	16800.00
616	16800.00
617	16800.00
618	16800.00
619	0.00
620	0.00
621	16800.00
622	16800.00
623	16800.00
624	16800.00
625	0.00
626	0.00
627	16800.00
628	16800.00
629	16800.00
630	16800.00
631	16800.00
632	16800.00
633	0.00
634	0.00
635	16800.00
636	16800.00
637	16800.00
638	16800.00
639	16800.00
640	16800.00
641	16800.00
642	0.00
643	0.00
644	16800.00
645	16800.00
646	16800.00
647	16800.00
648	16800.00
649	16800.00
650	0.00
651	0.00
652	16800.00
653	16800.00
654	16800.00
655	16800.00
656	16800.00
657	0.00
658	0.00
659	16800.00
660	16800.00
661	16800.00
662	16800.00
663	16800.00
664	16800.00
665	0.00
666	0.00
667	16800.00
668	16800.00
669	16800.00
670	16800.00
671	16800.00
672	16800.00
673	16800.00
674	0.00
675	0.00
676	16800.00
677	16800.00
678	16800.00
679	16800.00
680	16800.00
681	16800.00
682	0.00
683	0.00
684	16800.00
685	16800.00
686	16800.00
687	16800.00
688	16800.00
689	16800.00
690	0.00
691	0.00
692	16800.00
693	16800.00
694	16800.00
695	16800.00
696	16800.00
697	16800.00
698	0.00
699	0.00
700	16800.00
701	16800.00
702	16800.00
703	16800.00
704	16800.00
705	0.00
706	0.00
707	16800.00
708	16800.00
709	16800.00
710	16800.00
711	16800.00
712	16800.00
713	0.00
714	0.00
715	16800.00
716	16800.00
717	16800.00
718	16800.00
719	16800.00
720	0.00
721	0.00
722	16800.00
723	16800.00
724	16800.00
725	16800.00
726	16800.00
727	16800.00
728	0.00
729	0.00
730	16800.00
731	16800.00
732	16800.00
733	16800.00
734	16800.00
735	0.00
736	0.00
737	16800.00
738	16800.00
739	16800.00
740	16800.00
741	16800.00
742	16800.00
743	0.00
744	0.00
745	16800.00
746	16800.00
747	16800.00
748	16800.00
749	16800.00
750	16800.00
751	0.00
752	0.00
753	16800.00
754	16800.00
755	16800.00
756	16800.00
757	16800.00
758	16800.00
759	0.00
760	0.00
761	0.00
762	0.00
763	0.00
764	16800.00
765	16800.00
766	16800.00
767	16800.00
768	0.00
769	0.00
770	0.00
771	0.00
772	0.00
773	0.00
774	16800.00
775	16800.00
776	16800.00
777	16800.00
778	0.00
779	0.00
780	16800.00
781	16800.00
782	16800.00
783	16800.00
784	16800.00
785	0.00
786	0.00
787	0.00
788	16800.00
789	16800.00
790	16800.00
791	16800.00
792	0.00
793	0.00
794	0.00
795	0.00
796	0.00
797	0.00
798	0.00
799	16800.00
800	16800.00
801	16800.00
802	16800.00
803	16800.00
804	0.00
805	0.00
806	16800.00
807	16800.00
808	16800.00
809	16800.00
810	0.00
811	0.00
812	0.00
813	0.00
814	16800.00
815	16800.00
816	16800.00
817	16800.00
818	0.00
819	0.00
820	0.00
821	0.00
822	0.00
823	0.00
824	16800.00
825	16800.00
826	16800.00
827	16800.00
828	0.00
829	0.00
830	16800.00
831	16800.00
832	16800.00
833	16800.00
834	16800.00
835	16800.00
836	0.00
837	0.00
838	0.00
839	0.00
840	0.00
841	0.00
842	0.00
843	16800.00
844	16800.00
845	16800.00
846	16800.00
847	16800.00
848	0.00
849	0.00
850	16800.00
851	16800.00
852	16800.00
853	16800.00
854	16800.00
855	0.00
856	0.00
857	0.00
858	16800.00
859	16800.00
860	16800.00
861	16800.00
862	16800.00
863	16800.00
864	16800.00
865	0.00
866	0.00
867	0.00
868	0.00
869	0.00
870	0.00
871	16800.00
872	16800.00
873	16800.00
874	16800.00
875	16800.00
876	0.00
877	0.00
878	16800.00
879	16800.00
880	16800.00
881	16800.00
882	16800.00
883	16800.00
884	0.00
885	0.00
886	16800.00
887	16800.00
888	16800.00
889	16800.00
890	0.00
891	0.00
892	0.00
893	0.00
894	0.00
895	16800.00
896	16800.00
897	16800.00
898	16800.00
899	16800.00
900	0.00
901	0.00
902	16800.00
903	16800.00
904	16800.00
905	16800.00
906	16800.00
907	0.00
908	0.00
909	16800.00
910	16800.00
911	16800.00
912	16800.00
913	16800.00
914	0.00
915	0.00
916	0.00
917	0.00
918	0.00
919	16800.00
920	16800.00
921	16800.00
922	16800.00
923	16800.00
924	0.00
925	0.00
926	16800.00
927	16800.00
928	16800.00
929	16800.00
930	0.00
931	0.00
932	16800.00
933	16800.00
934	16800.00
935	16800.00
936	16800.00
937	0.00
938	0.00
939	16800.00
940	16800.00
941	16800.00
942	16800.00
943	16800.00
944	16800.00
945	0.00
946	0.00
947	16800.00
948	16800.00
949	16800.00
950	16800.00
951	0.00
952	0.00
953	16800.00
954	16800.00
955	16800.00
956	16800.00
957	0.00
958	0.00
959	16800.00
960	16800.00
961	16800.00
962	16800.00
963	16800.00
964	0.00
965	0.00
966	16800.00
967	16800.00
968	16800.00
969	16800.00
970	16800.00
971	16800.00
972	16800.00
973	0.00
974	0.00
975	16800.00
976	16800.00
977	16800.00
978	16800.00
979	16800.00
980	0.00
981	0.00
982	16800.00
983	16800.00
984	16800.00
985	16800.00
986	0.00
987	0.00
988	0.00
989	0.00
990	0.00
991	16800.00
992	16800.00
993	16800.00
994	16800.00
995	16800.00
996	0.00
997	0.00
998	0.00
999	16800.00
1000	16800.00
1001	16800.00
1002	16800.00
1003	16800.00
1004	16800.00
1005	16800.00
1006	0.00
1007	0.00
1008	0.00
1009	0.00
1010	0.00
1011	0.00
1012	0.00
1013	0.00
1014	0.00
1015	16800.00
1016	16800.00
1017	16800.00
1018	16800.00
1019	0.00
1020	0.00
1021	0.00
1022	16800.00
1023	16800.00
1024	16800.00
1025	16800.00
1026	16800.00
1027	0.00
1028	0.00
1029	0.00
1030	0.00
1031	0.00
1032	0.00
1033	16800.00
1034	16800.00
1035	16800.00
1036	0.00
1037	0.00
1038	0.00
1039	0.00
1040	16800.00
1041	16800.00
1042	16800.00
1043	16800.00
1044	16800.00
1045	0.00
1046	0.00
1047	0.00
1048	0.00
1049	0.00
1050	0.00
1051	16800.00
1052	16800.00
1053	16800.00
1054	16800.00
1055	16800.00
1056	0.00
1057	0.00
1058	0.00
1059	0.00
1060	0.00
1061	0.00
1062	0.00
1063	16800.00
1064	16800.00
1065	16800.00
1066	16800.00
1067	0.00
1068	0.00
1069	0.00
1070	0.00
1071	16800.00
1072	16800.00
1073	16800.00
1074	16800.00
1075	0.00
1076	0.00
1077	0.00
1078	0.00
1079	0.00
1080	0.00
1081	0.00
1082	0.00
1083	0.00
1084	16800.00
1085	16800.00
1086	16800.00
1087	16800.00
1088	16800.00
1089	0.00
1090	0.00
1091	16800.00
1092	16800.00
1093	16800.00
1094	16800.00
1095	0.00
1096	0.00
1097	0.00
1098	0.00
1099	0.00
1100	0.00
1101	0.00
1102	0.00
1103	0.00
1104	0.00
1105	0.00
1106	0.00
1107	0.00
1108	0.00
1109	0.00
1110	16800.00
1111	16800.00
1112	16800.00
1113	16800.00
1114	16800.00
1115	0.00
1116	0.00
1117	-28.70
1118	-5.40
1119	0.00
1120	16800.00
1121	16800.00
1122	16800.00
1123	0.00
1124	0.00
1125	0.00
1126	0.00
1127	0.00
1128	0.00
1129	0.00
1130	0.00
1131	0.00
1132	0.00
1133	0.00
1134	16800.00
1135	16800.00
1136	16800.00
1137	16800.00
1138	16800.00
1139	16800.00
1140	0.00
1141	0.00
1142	0.00
1143	0.00
1144	0.00
1145	16800.00
1146	16800.00
1147	16800.00
1148	16800.00
1149	16800.00
1150	16800.00
1151	0.00
1152	0.00
1153	0.00
1154	0.00
1155	0.00
1156	0.00
1157	0.00
1158	0.00
1159	16800.00
1160	16800.00
1161	16800.00
1162	16800.00
1163	0.00
1164	0.00
1165	16800.00
1166	16800.00
1167	16800.00
1168	16800.00
1169	0.00
1170	0.00
1171	16800.00
1172	16800.00
1173	16800.00
1174	16800.00
1175	0.00
1176	0.00
1177	0.00
1178	0.00
1179	0.00
1180	0.00
1181	0.00
1182	0.00
1183	16800.00
1184	16800.00
1185	16800.00
1186	16800.00
1187	16800.00
1188	0.00
1189	0.00
1190	0.00
1191	16800.00
1192	16800.00
1193	16800.00
1194	16800.00
1195	0.00
1196	0.00
1197	0.00
1198	16800.00
1199	16800.00
1200	16800.00
1201	16800.00
1202	0.00
1203	0.00
1204	0.00
1205	0.00
1206	0.00
1207	0.00
1208	16800.00
1209	16800.00
1210	16800.00
1211	16800.00
1212	16800.00
1213	0.00
1214	0.00
1215	0.00
1216	16800.00
1217	16800.00
1218	16800.00
1219	16800.00
1220	16800.00
1221	0.00
1222	0.00
1223	0.00
1224	0.00
1225	0.00
1226	0.00
1227	0.00
1228	0.00
1229	0.00
1230	16800.00
1231	16800.00
1232	16800.00
1233	16800.00
1234	16800.00
1235	16800.00
1236	0.00
1237	0.00
1238	16800.00
1239	16800.00
1240	16800.00
1241	16800.00
1242	16800.00
1243	0.00
1244	0.00
1245	0.00
1246	0.00
1247	16800.00
1248	16800.00
1249	16800.00
1250	0.00
1251	0.00
1252	0.00
1253	0.00
1254	0.00
1255	0.00
1256	16800.00
1257	16800.00
1258	16800.00
1259	16800.00
1260	16800.00
1261	16800.00
1262	0.00
1263	0.00
1264	0.00
1265	0.00
1266	16800.00
1267	16800.00
1268	16800.00
1269	16800.00
1270	16800.00
1271	16800.00
1272	0.00
1273	0.00
1274	0.00
1275	0.00
1276	0.00
1277	0.00
1278	0.00
1279	16800.00
1280	16800.00
1281	16800.00
1282	16800.00
1283	16800.00
1284	16800.00
1285	0.00
1286	0.00
1287	0.00
1288	16800.00
1289	16800.00
1290	16800.00
1291	16800.00
1292	16800.00
1293	0.00
1294	0.00
1295	0.00
1296	16800.00
1297	16800.00
1298	16800.00
1299	0.00
1300	0.00
1301	0.00
1302	0.00
1303	16800.00
1304	16800.00
1305	16800.00
1306	16800.00
1307	0.00
1308	0.00
1309	16800.00
1310	16800.00
1311	16800.00
1312	16800.00
1313	16800.00
1314	0.00
1315	0.00
1316	16800.00
1317	16800.00
1318	16800.00
1319	16800.00
1320	16800.00
1321	0.00
1322	0.00
1323	16800.00
1324	16800.00
1325	16800.00
1326	16800.00
1327	16800.00
1328	0.00
1329	0.00
1330	16800.00
1331	16800.00
1332	16800.00
1333	16800.00
1334	16800.00
1335	0.00
1336	0.00
1337	16800.00
1338	16800.00
1339	16800.00
1340	16800.00
1341	16800.00
1342	0.00
1343	0.00
1344	16800.00
1345	16800.00
1346	16800.00
1347	16800.00
1348	16800.00
1349	16800.00
1350	16800.00
1351	0.00
1352	0.00
1353	16800.00
1354	16800.00
1355	16800.00
1356	16800.00
1357	16800.00
1358	0.00
1359	0.00
1360	0.00
1361	0.00
1362	0.00
1363	16800.00
1364	16800.00
1365	16800.00
1366	16800.00
1367	16800.00
1368	0.00
1369	0.00
1370	0.00
1371	0.00
1372	0.00
1373	0.00
1374	0.00
1375	16800.00
1376	16800.00
1377	16800.00
1378	16800.00
1379	16800.00
1380	0.00
1381	0.00
1382	0.00
1383	0.00
1384	0.00
1385	16800.00
1386	16800.00
1387	16800.00
1388	16800.00
1389	0.00
1390	0.00
1391	0.00
1392	0.00
1393	0.00
1394	16800.00
1395	16800.00
1396	16800.00
1397	0.00
1398	0.00
1399	0.00
1400	16800.00
1401	16800.00
1402	16800.00
1403	16800.00
1404	0.00
1405	0.00
1406	16800.00
1407	16800.00
1408	16800.00
1409	16800.00
1410	16800.00
1411	16800.00
1412	0.00
1413	0.00
1414	0.00
1415	0.00
1416	0.00
1417	0.00
1418	0.00
1419	0.00
1420	0.00
1421	0.00
1422	16800.00
1423	16800.00
1424	16800.00
1425	16800.00
1426	16800.00
1427	16800.00
1428	0.00
1429	0.00
1430	0.00
1431	0.00
1432	16800.00
1433	16800.00
1434	16800.00
1435	16800.00
1436	0.00
1437	0.00
1438	0.00
1439	0.00
1440	0.00
1441	0.00
1442	0.00
1443	0.00
1444	16800.00
1445	16800.00
1446	16800.00
1447	16800.00
1448	16800.00
1449	16800.00
1450	0.00
1451	0.00
1452	0.00
1453	0.00
1454	0.00
1455	0.00
1456	0.00
1457	16800.00
1458	16800.00
1459	16800.00
1460	16800.00
1461	0.00
1462	0.00
1463	16800.00
1464	16800.00
1465	16800.00
1466	0.00
1467	0.00
1468	0.00
1469	0.00
1470	0.00
1471	16800.00
1472	16800.00
1473	16800.00
1474	16800.00
1475	0.00
1476	0.00
1477	0.00
1478	0.00
1479	0.00
1480	0.00
1481	16800.00
1482	16800.00
1483	16800.00
1484	16800.00
1485	16800.00
1486	0.00
1487	0.00
1488	0.00
1489	0.00
1490	0.00
1491	0.00
1492	0.00
1493	0.00
1494	16800.00
1495	16800.00
1496	16800.00
1497	16800.00
1498	0.00
1499	0.00
1500	16800.00
1501	16800.00
1502	16800.00
1503	16800.00
1504	16800.00
1505	0.00
1506	0.00
1507	0.00
1508	16800.00
1509	16800.00
1510	16800.00
1511	16800.00
1512	16800.00
1513	0.00
1514	0.00
1515	0.00
1516	0.00
1517	0.00
1518	0.00
1519	16800.00
1520	16800.00
1521	16800.00
1522	16800.00
1523	0.00
1524	0.00
1525	16800.00
1526	16800.00
1527	16800.00
1528	16800.00
1529	16800.00
1530	16800.00
1531	0.00
1532	0.00
1533	16800.00
1534	16800.00
1535	16800.00
1536	16800.00
1537	0.00
1538	0.00
1539	16800.00
1540	16800.00
1541	16800.00
1542	16800.00
1543	0.00
1544	0.00
1545	16800.00
1546	16800.00
1547	16800.00
1548	16800.00
1549	16800.00
1550	16800.00
1551	0.00
1552	0.00
1553	0.00
1554	0.00
1555	16800.00
1556	16800.00
1557	16800.00
1558	16800.00
1559	0.00
1560	0.00
1561	0.00
1562	0.00
1563	0.00
1564	0.00
1565	0.00
1566	16800.00
1567	16800.00
1568	16800.00
1569	16800.00
1570	16800.00
1571	16800.00
1572	16800.00
1573	0.00
1574	0.00
1575	0.00
1576	0.00
1577	0.00
1578	16800.00
1579	16800.00
1580	16800.00
1581	16800.00
1582	16800.00
1583	16800.00
1584	0.00
1585	0.00
1586	0.00
1587	0.00
1588	0.00
1589	0.00
1590	0.00
1591	16800.00
1592	16800.00
1593	16800.00
1594	16800.00
1595	16800.00
1596	0.00
1597	0.00
1598	0.00
1599	0.00
1600	0.00
1601	0.00
1602	16800.00
1603	16800.00
1604	16800.00
1605	16800.00
1606	16800.00
1607	16800.00
1608	0.00
1609	0.00
1610	0.00
1611	0.00
1612	0.00
1613	0.00
1614	0.00
1615	16800.00
1616	16800.00
1617	16800.00
1618	16800.00
1619	16800.00
1620	16800.00
1621	-5.00
1622	0.00
1623	0.00
1624	0.00
1625	0.00
1626	0.00
1627	0.00
1628	0.00
1629	0.00
1630	16800.00
1631	16800.00
1632	16800.00
1633	16800.00
1634	0.00
1635	0.00
1636	0.00
1637	0.00
1638	0.00
1639	16800.00
1640	16800.00
1641	16800.00
1642	16800.00
1643	0.00
1644	0.00
1645	0.00
1646	0.00
1647	16800.00
1648	16800.00
1649	16800.00
1650	16800.00
1651	0.00
1652	0.00
1653	0.00
1654	0.00
1655	0.00
1656	0.00
1657	0.00
1658	0.00
1659	0.00
1660	0.00
1661	0.00
1662	16800.00
1663	16800.00
1664	16800.00
1665	16800.00
1666	0.00
1667	0.00
1668	0.00
1669	0.00
1670	0.00
1671	0.00
1672	0.00
1673	0.00
1674	0.00
1675	16800.00
1676	16800.00
1677	16800.00
1678	16800.00
1679	0.00
1680	0.00
1681	0.00
1682	0.00
1683	0.00
1684	0.00
1685	0.00
1686	0.00
1687	0.00
1688	16800.00
1689	16800.00
1690	16800.00
1691	16800.00
1692	0.00
1693	0.00
1694	0.00
1695	0.00
1696	0.00
1697	0.00
1698	0.00
1699	0.00
1700	0.00
1701	0.00
1702	0.00
1703	0.00
1704	0.00
1705	0.00
1706	0.00
1707	0.00
1708	0.00
1709	0.00
1710	16800.00
1711	16800.00
1712	16800.00
1713	16800.00
1714	16800.00
1715	0.00
1716	0.00
1717	0.00
1718	0.00
1719	0.00
1720	0.00
1721	0.00
1722	0.00
1723	0.00
1724	0.00
1725	0.00
1726	0.00
1727	0.00
1728	0.00
1729	0.00
1730	0.00
1731	0.00
1732	0.00
1733	0.00
1734	0.00
1735	16800.00
1736	16800.00
1737	16800.00
1738	-74.40
1739	-475.80
1740	-681.30
1741	-749.20
1742	-404.90
1743	-41.10
1744	0.00
1745	0.00
1746	0.00
1747	0.00
1748	0.00
1749	0.00
1750	0.00
1751	0.00
1752	0.00
1753	0.00
1754	0.00
1755	16800.00
1756	16800.00
1757	16800.00
1758	0.00
1759	0.00
1760	0.00
1761	0.00
1762	0.00
1763	0.00
1764	0.00
1765	0.00
1766	0.00
1767	0.00
1768	0.00
1769	0.00
1770	0.00
1771	0.00
1772	0.00
1773	16800.00
1774	16800.00
1775	16800.00
1776	0.00
1777	0.00
1778	0.00
1779	0.00
1780	0.00
1781	0.00
1782	0.00
1783	0.00
1784	0.00
1785	0.00
1786	0.00
1787	0.00
1788	0.00
1789	0.00
1790	0.00
1791	0.00
1792	0.00
1793	0.00
1794	16800.00
1795	16800.00
1796	16800.00
1797	0.00
1798	0.00
1799	0.00
1800	0.00
1801	0.00
1802	0.00
1803	0.00
1804	0.00
1805	0.00
1806	0.00
1807	0.00
1808	0.00
1809	0.00
1810	0.00
1811	0.00
1812	0.00
1813	16800.00
1814	16800.00
1815	16800.00
1816	0.00
1817	0.00
1818	0.00
1819	0.00
1820	0.00
1821	0.00
1822	0.00
1823	0.00
1824	0.00
1825	0.00
1826	0.00
1827	0.00
1828	0.00
1829	0.00
1830	0.00
1831	0.00
1832	16800.00
1833	16800.00
1834	16800.00
1835	0.00
1836	0.00
1837	0.00
1838	0.00
1839	0.00
1840	0.00
1841	0.00
1842	0.00
1843	0.00
1844	0.00
1845	0.00
1846	0.00
1847	0.00
1848	0.00
1849	0.00
1850	0.00
1851	0.00
1852	0.00
1853	0.00
1854	16800.00
1855	16800.00
1856	16800.00
1857	16800.00
1858	0.00
1859	0.00
1860	-4.60
1861	-75.50
1862	-15.40
1863	0.00
1864	0.00
1865	0.00
1866	0.00
1867	0.00
1868	0.00
1869	0.00
1870	0.00
1871	0.00
1872	0.00
1873	0.00
1874	0.00
1875	0.00
1876	0.00
1877	0.00
1878	16800.00
1879	16800.00
1880	16800.00
1881	16800.00
1882	0.00
1883	0.00
1884	0.00
1885	0.00
1886	0.00
1887	0.00
1888	0.00
1889	0.00
1890	0.00
1891	0.00
1892	0.00
1893	16800.00
1894	16800.00
1895	16800.00
1896	0.00
1897	0.00
1898	0.00
1899	0.00
1900	0.00
1901	0.00
1902	0.00
1903	0.00
1904	0.00
1905	16800.00
1906	16800.00
1907	16800.00
1908	16800.00
1909	0.00
1910	0.00
1911	0.00
1912	0.00
1913	0.00
1914	0.00
1915	0.00
1916	0.00
1917	0.00
1918	0.00
1919	0.00
1920	0.00
1921	0.00
1922	0.00
1923	0.00
1924	0.00
1925	0.00
1926	0.00
1927	0.00
1928	0.00
1929	0.00
1930	16800.00
1931	16800.00
1932	16800.00
1933	0.00
1934	0.00
1935	0.00
1936	0.00
1937	0.00
1938	0.00
1939	0.00
1940	0.00
1941	0.00
1942	0.00
1943	0.00
1944	0.00
1945	0.00
1946	0.00
1947	0.00
1948	0.00
1949	0.00
1950	0.00
1951	16800.00
1952	16800.00
1953	16800.00
1954	16800.00
1955	0.00
1956	0.00
1957	0.00
1958	0.00
1959	0.00
1960	0.00
1961	0.00
1962	0.00
1963	0.00
1964	0.00
1965	0.00
1966	0.00
1967	0.00
1968	0.00
1969	0.00
1970	0.00
1971	0.00
1972	0.00
1973	0.00
1974	0.00
1975	16800.00
1976	16800.00
1977	16800.00
1978	16800.00
1979	-161.90
1980	-46.90
1981	-33.40
1982	0.00
1983	0.00
1984	0.00
1985	0.00
1986	0.00
1987	0.00
1988	0.00
1989	0.00
1990	0.00
1991	0.00
1992	0.00
1993	0.00
1994	0.00
1995	0.00
1996	0.00
1997	0.00
1998	16800.00
1999	16800.00
2000	16800.00
2001	16800.00
2002	16800.00
2003	16800.00
2004	0.00
2005	0.00
2006	0.00
2007	0.00
2008	0.00
2009	0.00
2010	0.00
2011	0.00
2012	0.00
2013	0.00
2014	16800.00
2015	16800.00
2016	16800.00
2017	0.00
2018	0.00
2019	0.00
2020	0.00
2021	0.00
2022	0.00
2023	0.00
2024	16800.00
2025	16800.00
2026	16800.00
2027	16800.00
2028	0.00
2029	0.00
2030	0.00
2031	0.00
2032	0.00
2033	0.00
2034	0.00
2035	0.00
2036	0.00
2037	16800.00
2038	16800.00
2039	16800.00
2040	0.00
2041	0.00
2042	0.00
2043	0.00
2044	0.00
2045	0.00
2046	0.00
2047	16800.00
2048	16800.00
2049	16800.00
2050	16800.00
2051	16800.00
2052	0.00
2053	0.00
2054	0.00
2055	0.00
2056	0.00
2057	0.00
2058	0.00
2059	0.00
2060	16800.00
2061	16800.00
2062	16800.00
2063	16800.00
2064	0.00
2065	0.00
2066	0.00
2067	0.00
2068	0.00
2069	0.00
2070	0.00
2071	16800.00
2072	16800.00
2073	16800.00
2074	16800.00
2075	16800.00
2076	0.00
2077	0.00
2078	0.00
2079	0.00
2080	0.00
2081	16800.00
2082	16800.00
2083	16800.00
2084	16800.00
2085	16800.00
2086	0.00
2087	0.00
2088	0.00
2089	0.00
2090	0.00
2091	0.00
2092	0.00
2093	0.00
2094	0.00
2095	16800.00
2096	16800.00
2097	16800.00
2098	16800.00
2099	16800.00
2100	16800.00
2101	0.00
2102	0.00
2103	0.00
2104	0.00
2105	0.00
2106	0.00
2107	0.00
2108	0.00
2109	16800.00
2110	16800.00
2111	16800.00
2112	16800.00
2113	0.00
2114	0.00
2115	0.00
2116	0.00
2117	0.00
2118	0.00
2119	0.00
2120	16800.00
2121	16800.00
2122	16800.00
2123	16800.00
2124	16800.00
2125	0.00
2126	0.00
2127	0.00
2128	0.00
2129	0.00
2130	0.00
2131	0.00
2132	0.00
2133	0.00
2134	0.00
2135	0.00
2136	0.00
2137	0.00
2138	0.00
2139	0.00
2140	0.00
2141	0.00
2142	16800.00
2143	16800.00
2144	16800.00
2145	16800.00
2146	-10.30
2147	-303.20
2148	-271.30
2149	-315.20
2150	-115.50
2151	0.00
2152	0.00
2153	0.00
2154	0.00
2155	0.00
2156	0.00
2157	0.00
2158	0.00
2159	0.00
2160	0.00
2161	0.00
2162	0.00
2163	0.00
2164	0.00
2165	0.00
2166	16800.00
2167	16800.00
2168	16800.00
2169	16800.00
2170	-310.30
2171	-605.60
2172	-676.60
2173	-667.20
2174	-498.40
2175	-90.20
2176	0.00
2177	0.00
2178	0.00
2179	0.00
2180	0.00
2181	0.00
2182	0.00
2183	0.00
2184	0.00
2185	0.00
2186	0.00
2187	0.00
2188	0.00
2189	0.00
2190	0.00
2191	0.00
2192	0.00
2193	-300.20
2194	-667.90
2195	-677.70
2196	-747.40
2197	-819.20
2198	-730.20
2199	-540.00
2200	-53.50
2201	0.00
2202	16800.00
2203	16800.00
2204	16800.00
2205	0.00
2206	0.00
2207	0.00
2208	0.00
2209	0.00
2210	0.00
2211	0.00
2212	0.00
2213	0.00
2214	0.00
2215	0.00
2216	0.00
2217	-420.60
2218	-365.50
2219	-519.60
2220	-431.30
2221	-104.70
2222	0.00
2223	0.00
2224	0.00
2225	0.00
2226	0.00
2227	0.00
2228	0.00
2229	16800.00
2230	16800.00
2231	16800.00
2232	0.00
2233	0.00
2234	0.00
2235	0.00
2236	0.00
2237	0.00
2238	0.00
2239	0.00
2240	0.00
2241	0.00
2242	0.00
2243	16800.00
2244	16800.00
2245	16800.00
2246	16800.00
2247	0.00
2248	0.00
2249	0.00
2250	0.00
2251	0.00
2252	0.00
2253	0.00
2254	0.00
2255	16800.00
2256	16800.00
2257	16800.00
2258	0.00
2259	0.00
2260	0.00
2261	0.00
2262	0.00
2263	0.00
2264	16800.00
2265	16800.00
2266	16800.00
2267	16800.00
2268	16800.00
2269	0.00
2270	0.00
2271	0.00
2272	0.00
2273	16800.00
2274	16800.00
2275	16800.00
2276	16800.00
2277	0.00
2278	0.00
2279	0.00
2280	0.00
2281	0.00
2282	0.00
2283	0.00
2284	0.00
2285	0.00
2286	0.00
2287	16800.00
2288	16800.00
2289	16800.00
2290	16800.00
2291	16800.00
2292	16800.00
2293	0.00
2294	0.00
2295	0.00
2296	0.00
2297	0.00
2298	0.00
2299	0.00
2300	0.00
2301	16800.00
2302	16800.00
2303	16800.00
2304	16800.00
2305	0.00
2306	0.00
2307	0.00
2308	0.00
2309	0.00
2310	0.00
2311	16800.00
2312	16800.00
2313	16800.00
2314	-25.80
2315	-306.10
2316	-171.90
2317	-134.50
2318	-9.50
2319	0.00
2320	0.00
2321	0.00
2322	0.00
2323	0.00
2324	16800.00
2325	16800.00
2326	16800.00
2327	16800.00
2328	0.00
2329	0.00
2330	0.00
2331	0.00
2332	0.00
2333	0.00
2334	0.00
2335	0.00
2336	0.00
2337	0.00
2338	-118.50
2339	-236.90
2340	-371.90
2341	-309.30
2342	-52.50
2343	0.00
2344	0.00
2345	16800.00
2346	16800.00
2347	16800.00
2348	0.00
2349	0.00
2350	0.00
2351	0.00
2352	0.00
2353	0.00
2354	0.00
2355	0.00
2356	0.00
2357	0.00
2358	0.00
2359	0.00
2360	0.00
2361	16800.00
2362	16800.00
2363	16800.00
2364	0.00
2365	0.00
2366	0.00
2367	0.00
2368	0.00
2369	0.00
2370	0.00
2371	0.00
2372	0.00
2373	0.00
2374	0.00
2375	0.00
2376	0.00
2377	0.00
2378	0.00
2379	0.00
2380	0.00
2381	0.00
2382	16800.00
2383	16800.00
2384	16800.00
2385	16800.00
2386	16800.00
2387	0.00
2388	0.00
2389	0.00
2390	0.00
2391	0.00
2392	0.00
2393	0.00
2394	16800.00
2395	16800.00
2396	16800.00
2397	16800.00
2398	16800.00
2399	0.00
2400	0.00
2401	0.00
2402	0.00
2403	0.00
2404	0.00
2405	0.00
2406	0.00
2407	16800.00
2408	16800.00
2409	16800.00
2410	16800.00
2411	16800.00
2412	0.00
2413	0.00
2414	0.00
2415	0.00
2416	0.00
2417	0.00
2418	0.00
2419	0.00
2420	0.00
2421	16800.00
2422	16800.00
2423	16800.00
2424	0.00
2425	0.00
2426	0.00
2427	0.00
2428	0.00
2429	0.00
2430	0.00
2431	16800.00
2432	16800.00
2433	16800.00
2434	16800.00
2435	16800.00
2436	16800.00
2437	0.00
2438	0.00
2439	0.00
2440	0.00
2441	0.00
2442	0.00
2443	16800.00
2444	16800.00
2445	16800.00
2446	16800.00
2447	0.00
2448	0.00
2449	0.00
2450	0.00
2451	0.00
2452	0.00
2453	0.00
2454	0.00
2455	16800.00
2456	16800.00
2457	16800.00
2458	16800.00
2459	16800.00
2460	0.00
2461	0.00
2462	0.00
2463	0.00
2464	16800.00
2465	16800.00
2466	16800.00
2467	16800.00
2468	16800.00
2469	0.00
2470	0.00
2471	0.00
2472	0.00
2473	0.00
2474	0.00
2475	0.00
2476	0.00
2477	0.00
2478	0.00
2479	16800.00
2480	16800.00
2481	16800.00
2482	16800.00
2483	16800.00
2484	0.00
2485	0.00
2486	0.00
2487	0.00
2488	0.00
2489	0.00
2490	0.00
2491	0.00
2492	0.00
2493	0.00
2494	0.00
2495	0.00
2496	0.00
2497	16800.00
2498	16800.00
2499	16800.00
2500	0.00
2501	0.00
2502	0.00
2503	0.00
2504	0.00
2505	16800.00
2506	16800.00
2507	16800.00
2508	16800.00
2509	0.00
2510	0.00
2511	0.00
2512	0.00
2513	0.00
2514	0.00
2515	0.00
2516	0.00
2517	0.00
2518	0.00
2519	0.00
2520	0.00
2521	0.00
2522	0.00
2523	0.00
2524	0.00
2525	0.00
2526	0.00
2527	16800.00
2528	16800.00
2529	16800.00
2530	16800.00
2531	0.00
2532	0.00
2533	0.00
2534	0.00
2535	0.00
2536	0.00
2537	0.00
2538	0.00
2539	0.00
2540	0.00
2541	0.00
2542	16800.00
2543	16800.00
2544	16800.00
2545	0.00
2546	0.00
2547	0.00
2548	0.00
2549	0.00
2550	0.00
2551	0.00
2552	0.00
2553	0.00
2554	16800.00
2555	16800.00
2556	16800.00
2557	0.00
2558	0.00
2559	0.00
2560	0.00
2561	0.00
2562	0.00
2563	0.00
2564	0.00
2565	0.00
2566	0.00
2567	0.00
2568	0.00
2569	0.00
2570	0.00
2571	0.00
2572	0.00
2573	0.00
2574	16800.00
2575	16800.00
2576	16800.00
2577	16800.00
2578	0.00
2579	0.00
2580	0.00
2581	0.00
2582	0.00
2583	0.00
2584	0.00
2585	0.00
2586	0.00
2587	0.00
2588	0.00
2589	0.00
2590	0.00
2591	0.00
2592	0.00
2593	0.00
2594	0.00
2595	0.00
2596	0.00
2597	0.00
2598	16800.00
2599	16800.00
2600	16800.00
2601	16800.00
2602	16800.00
2603	0.00
2604	0.00
2605	0.00
2606	0.00
2607	0.00
2608	0.00
2609	0.00
2610	0.00
2611	0.00
2612	0.00
2613	0.00
2614	0.00
2615	0.00
2616	0.00
2617	0.00
2618	0.00
2619	0.00
2620	0.00
2621	0.00
2622	0.00
2623	16800.00
2624	16800.00
2625	16800.00
2626	16800.00
2627	0.00
2628	0.00
2629	0.00
2630	0.00
2631	0.00
2632	0.00
2633	0.00
2634	0.00
2635	0.00
2636	0.00
2637	0.00
2638	0.00
2639	0.00
2640	0.00
2641	0.00
2642	0.00
2643	0.00
2644	0.00
2645	0.00
2646	0.00
2647	0.00
2648	0.00
2649	0.00
2650	0.00
2651	0.00
2652	0.00
2653	0.00
2654	0.00
2655	0.00
2656	0.00
2657	0.00
2658	0.00
2659	0.00
2660	16800.00
2661	16800.00
2662	16800.00
2663	0.00
2664	0.00
2665	0.00
2666	0.00
2667	0.00
2668	0.00
2669	0.00
2670	0.00
2671	0.00
2672	0.00
2673	0.00
2674	0.00
2675	-1.20
2676	-99.40
2677	-19.90
2678	0.00
2679	0.00
2680	0.00
2681	0.00
2682	0.00
2683	0.00
2684	0.00
2685	0.00
2686	0.00
2687	0.00
2688	0.00
2689	0.00
2690	0.00
2691	0.00
2692	0.00
2693	0.00
2694	0.00
2695	0.00
2696	16800.00
2697	16800.00
2698	16800.00
2699	0.00
2700	0.00
2701	0.00
2702	0.00
2703	0.00
2704	0.00
2705	0.00
2706	0.00
2707	0.00
2708	0.00
2709	0.00
2710	0.00
2711	0.00
2712	0.00
2713	0.00
2714	0.00
2715	0.00
2716	0.00
2717	0.00
2718	0.00
2719	0.00
2720	16800.00
2721	16800.00
2722	16800.00
2723	0.00
2724	0.00
2725	0.00
2726	0.00
2727	0.00
2728	0.00
2729	0.00
2730	0.00
2731	0.00
2732	0.00
2733	0.00
2734	0.00
2735	0.00
2736	0.00
2737	0.00
2738	0.00
2739	0.00
2740	0.00
2741	0.00
2742	0.00
2743	-53.00
2744	-569.80
2745	-1237.10
2746	-1109.40
2747	-905.70
2748	-963.70
2749	-990.40
2750	-878.30
2751	-197.00
2752	-4.30
2753	0.00
2754	0.00
2755	-19.90
2756	0.00
2757	0.00
2758	0.00
2759	16800.00
2760	16800.00
2761	16800.00
2762	0.00
2763	0.00
2764	0.00
2765	0.00
2766	-120.50
2767	-787.50
2768	-1320.80
2769	-980.60
2770	-1179.30
2771	-1178.60
2772	-1198.00
2773	-1172.40
2774	-731.10
2775	-54.90
2776	0.00
2777	0.00
2778	0.00
2779	-76.00
2780	0.00
2781	0.00
2782	0.00
2783	0.00
2784	0.00
2785	0.00
2786	0.00
2787	0.00
2788	0.00
2789	0.00
2790	0.00
2791	0.00
2792	0.00
2793	0.00
2794	0.00
2795	0.00
2796	0.00
2797	0.00
2798	0.00
2799	0.00
2800	0.00
2801	0.00
2802	0.00
2803	0.00
2804	0.00
2805	0.00
2806	0.00
2807	0.00
2808	0.00
2809	0.00
2810	0.00
2811	0.00
2812	0.00
2813	0.00
2814	0.00
2815	16800.00
2816	16800.00
2817	16800.00
2818	0.00
2819	0.00
2820	0.00
2821	0.00
2822	0.00
2823	0.00
2824	0.00
2825	0.00
2826	0.00
2827	0.00
2828	0.00
2829	0.00
2830	0.00
2831	0.00
2832	0.00
2833	0.00
2834	0.00
2835	0.00
2836	0.00
2837	0.00
2838	0.00
2839	0.00
2840	0.00
2841	0.00
2842	0.00
2843	-66.50
2844	-286.60
2845	-99.40
2846	-59.70
2847	0.00
2848	0.00
2849	0.00
2850	0.00
2851	0.00
2852	0.00
2853	16800.00
2854	16800.00
2855	16800.00
2856	0.00
2857	0.00
2858	0.00
2859	0.00
2860	0.00
2861	0.00
2862	0.00
2863	0.00
2864	-318.70
2865	-1197.40
2866	-1377.10
2867	-1243.40
2868	-1268.50
2869	-1282.10
2870	-1308.70
2871	-1003.60
2872	-446.80
2873	-51.30
2874	0.00
2875	-191.40
2876	0.00
2877	0.00
2878	0.00
2879	0.00
2880	0.00
2881	0.00
2882	0.00
2883	0.00
2884	0.00
2885	0.00
2886	-563.00
2887	-1217.90
2888	-1468.20
2889	-1468.20
2890	-1468.20
2891	-1537.20
2892	-1986.30
2893	-2574.00
2894	-3038.20
2895	-3050.00
2896	-3650.20
2897	-3102.40
2898	-1247.10
2899	-1026.40
2900	-595.30
2901	-65.90
2902	-6.40
2903	-19.60
2904	0.00
2905	0.00
2906	0.00
2907	0.00
2908	0.00
2909	0.00
2910	-466.30
2911	-1216.80
2912	-1466.70
2913	-1468.20
2914	-1492.90
2915	-1604.20
2916	-1800.90
2917	-2090.10
2918	-2281.00
2919	-2301.30
2920	-3337.10
2921	-2901.00
2922	-889.40
2923	-682.00
2924	-287.20
2925	-25.50
2926	-0.10
2927	-14.90
2928	0.00
2929	16800.00
2930	16800.00
2931	16800.00
2932	16800.00
2933	-29.70
2934	-1249.70
2935	-1468.20
2936	-1586.20
2937	-1776.10
2938	-2513.00
2939	-3644.50
2940	-4108.60
2941	-4371.00
2942	-5138.80
2943	-5004.40
2944	-4662.30
2945	-4455.40
2946	-3344.50
2947	-2050.00
2948	-1353.10
2949	-791.00
2950	-480.10
2951	-509.20
2952	-184.60
2953	-40.10
2954	0.00
2955	0.00
2956	0.00
2957	-18.80
2958	-864.80
2959	-1025.60
2960	-1261.20
2961	-1416.30
2962	-1599.00
2963	-1382.70
2964	-1617.30
2965	-2778.50
2966	-3751.70
2967	-3848.80
2968	-3473.80
2969	-2335.00
2970	-245.40
2971	-111.50
2972	0.00
2973	0.00
2974	0.00
2975	0.00
2976	0.00
2977	0.00
2978	0.00
2979	0.00
2980	0.00
2981	0.00
2982	0.00
2983	0.00
2984	0.00
2985	0.00
2986	0.00
2987	0.00
2988	16800.00
2989	16800.00
2990	16800.00
2991	0.00
2992	0.00
2993	0.00
2994	0.00
2995	0.00
2996	0.00
2997	0.00
2998	0.00
2999	0.00
3000	0.00
3001	0.00
3002	0.00
3003	0.00
3004	0.00
3005	0.00
3006	0.00
3007	0.00
3008	0.00
3009	0.00
3010	0.00
3011	0.00
3012	0.00
3013	0.00
3014	0.00
3015	0.00
3016	0.00
3017	0.00
3018	0.00
3019	0.00
3020	0.00
3021	0.00
3022	0.00
3023	0.00
3024	0.00
3025	0.00
3026	0.00
3027	0.00
3028	0.00
3029	0.00
3030	0.00
3031	0.00
3032	0.00
3033	0.00
3034	0.00
3035	16800.00
3036	16800.00
3037	16800.00
3038	0.00
3039	0.00
3040	0.00
3041	0.00
3042	0.00
3043	0.00
3044	0.00
3045	0.00
3046	0.00
3047	0.00
3048	0.00
3049	0.00
3050	0.00
3051	0.00
3052	0.00
3053	0.00
3054	0.00
3055	-5.70
3056	-310.80
3057	-421.50
3058	-207.20
3059	-75.00
3060	-149.30
3061	-157.20
3062	-104.90
3063	0.00
3064	0.00
3065	0.00
3066	0.00
3067	-0.20
3068	0.00
3069	0.00
3070	0.00
3071	0.00
3072	0.00
3073	0.00
3074	0.00
3075	0.00
3076	0.00
3077	0.00
3078	0.00
3079	0.00
3080	0.00
3081	0.00
3082	16800.00
3083	-16.30
3084	-90.00
3085	-88.30
3086	-47.10
3087	0.00
3088	0.00
3089	0.00
3090	0.00
3091	0.00
3092	0.00
3093	0.00
3094	0.00
3095	0.00
3096	0.00
3097	0.00
3098	0.00
3099	0.00
3100	0.00
3101	16800.00
3102	16800.00
3103	16800.00
3104	0.00
3105	0.00
3106	0.00
3107	0.00
3108	-9.40
3109	-64.60
3110	-63.30
3111	0.00
3112	0.00
3113	0.00
3114	0.00
3115	0.00
3116	0.00
3117	0.00
3118	0.00
3119	0.00
3120	0.00
3121	0.00
3122	0.00
3123	0.00
3124	0.00
3125	0.00
3126	0.00
3127	0.00
3128	-12.30
3129	-208.50
3130	-528.90
3131	-638.60
3132	-635.00
3133	-644.30
3134	-474.60
3135	-29.00
3136	0.00
3137	0.00
3138	0.00
3139	-55.40
3140	0.00
3141	0.00
3142	0.00
3143	0.00
3144	0.00
3145	0.00
3146	0.00
3147	0.00
3148	0.00
3149	0.00
3150	-364.60
3151	-1024.30
3152	-1389.10
3153	-1468.20
3154	-1445.40
3155	-1335.80
3156	-1468.20
3157	-1406.00
3158	-1145.20
3159	-492.40
3160	-228.10
3161	-53.70
3162	-10.20
3163	-260.70
3164	0.00
3165	16800.00
3166	16800.00
3167	16800.00
3168	16800.00
3169	0.00
3170	0.00
3171	0.00
3172	0.00
3173	0.00
3174	0.00
3175	0.00
3176	0.00
3177	-49.90
3178	-205.10
3179	-567.00
3180	-843.80
3181	-270.40
3182	-304.00
3183	-16.00
3184	0.00
3185	0.00
3186	0.00
3187	0.00
3188	0.00
3189	0.00
3190	0.00
3191	0.00
3192	0.00
3193	0.00
3194	0.00
3195	0.00
3196	0.00
3197	0.00
3198	0.00
3199	0.00
3200	0.00
3201	0.00
3202	0.00
3203	0.00
3204	0.00
3205	-7.00
3206	0.00
3207	0.00
3208	0.00
3209	0.00
3210	0.00
3211	0.00
3212	0.00
3213	16800.00
3214	16800.00
3215	16800.00
3216	0.00
3217	0.00
3218	0.00
3219	0.00
3220	0.00
3221	0.00
3222	0.00
3223	0.00
3224	0.00
3225	0.00
3226	0.00
3227	0.00
3228	0.00
3229	0.00
3230	0.00
3231	0.00
3232	0.00
3233	0.00
3234	0.00
3235	0.00
3236	0.00
3237	0.00
3238	0.00
3239	0.00
3240	0.00
3241	0.00
3242	0.00
3243	0.00
3244	0.00
3245	0.00
3246	0.00
3247	0.00
3248	-68.90
3249	-355.30
3250	-542.70
3251	-644.90
3252	-704.70
3253	-629.70
3254	-347.80
3255	-40.20
3256	0.00
3257	0.00
3258	0.00
3259	16800.00
3260	16800.00
3261	16800.00
3262	0.00
3263	0.00
3264	0.00
3265	0.00
3266	0.00
3267	0.00
3268	0.00
3269	0.00
3270	0.00
3271	0.00
3272	0.00
3273	0.00
3274	0.00
3275	0.00
3276	0.00
3277	0.00
3278	0.00
3279	0.00
3280	0.00
3281	0.00
3282	0.00
3283	0.00
3284	0.00
3285	0.00
3286	0.00
3287	0.00
3288	0.00
3289	0.00
3290	0.00
3291	0.00
3292	0.00
3293	0.00
3294	0.00
3295	0.00
3296	0.00
3297	0.00
3298	0.00
3299	0.00
3300	-26.10
3301	-84.20
3302	-44.80
3303	0.00
3304	0.00
3305	0.00
3306	0.00
3307	0.00
3308	0.00
3309	16800.00
3310	16800.00
3311	16800.00
3312	0.00
3313	0.00
3314	0.00
3315	0.00
3316	0.00
3317	0.00
3318	0.00
3319	0.00
3320	-9.20
3321	-0.70
3322	0.00
3323	0.00
3324	-100.10
3325	-51.50
3326	-13.00
3327	0.00
3328	0.00
3329	0.00
3330	0.00
3331	0.00
3332	0.00
3333	0.00
3334	0.00
3335	0.00
3336	0.00
3337	0.00
3338	0.00
3339	0.00
3340	0.00
3341	0.00
3342	0.00
3343	-20.10
3344	-314.40
3345	-761.10
3346	-945.60
3347	-1089.90
3348	-1205.80
3349	-874.30
3350	-566.00
3351	-47.60
3352	0.00
3353	0.00
3354	0.00
3355	0.00
3356	0.00
3357	0.00
3358	0.00
3359	0.00
3360	0.00
3361	0.00
3362	0.00
3363	0.00
3364	0.00
3365	0.00
3366	0.00
3367	16800.00
3368	16800.00
3369	16800.00
3370	0.00
3371	0.00
3372	0.00
3373	0.00
3374	0.00
3375	0.00
3376	0.00
3377	0.00
3378	0.00
3379	0.00
3380	0.00
3381	0.00
3382	0.00
3383	0.00
3384	0.00
3385	0.00
3386	0.00
3387	0.00
3388	0.00
3389	0.00
3390	0.00
3391	0.00
3392	0.00
3393	0.00
3394	0.00
3395	0.00
3396	0.00
3397	0.00
3398	0.00
3399	0.00
3400	0.00
3401	0.00
3402	0.00
3403	0.00
3404	0.00
3405	0.00
3406	0.00
3407	16800.00
3408	16800.00
3409	16800.00
3410	0.00
3411	0.00
3412	0.00
3413	0.00
3414	0.00
3415	0.00
3416	0.00
3417	0.00
3418	0.00
3419	0.00
3420	0.00
3421	0.00
3422	0.00
3423	0.00
3424	0.00
3425	0.00
3426	0.00
3427	0.00
3428	0.00
3429	0.00
3430	0.00
3431	0.00
3432	0.00
3433	0.00
3434	0.00
3435	0.00
3436	0.00
3437	0.00
3438	0.00
3439	0.00
3440	-21.20
3441	-188.20
3442	-278.70
3443	-370.90
3444	-506.60
3445	-502.10
3446	-424.60
3447	-80.70
3448	-39.20
3449	-17.10
3450	-1.50
3451	-224.80
3452	0.00
3453	0.00
3454	0.00
3455	0.00
3456	0.00
3457	0.00
3458	0.00
3459	0.00
3460	0.00
3461	0.00
3462	0.00
3463	0.00
3464	-159.40
3465	-432.00
3466	-474.70
3467	-479.70
3468	-526.30
3469	-517.70
3470	-357.70
3471	-7.10
3472	0.00
3473	16800.00
3474	16800.00
3475	-34.30
3476	0.00
3477	0.00
3478	0.00
3479	0.00
3480	0.00
3481	0.00
3482	0.00
3483	0.00
3484	0.00
3485	0.00
3486	0.00
3487	-107.60
3488	-510.40
3489	-1070.50
3490	-1255.10
3491	-1144.40
3492	-1387.80
3493	-1223.90
3494	-1070.50
3495	-491.30
3496	-274.00
3497	-126.90
3498	-62.00
3499	-433.70
3500	-0.70
3501	0.00
3502	0.00
3503	16800.00
3504	16800.00
3505	16800.00
3506	0.00
3507	0.00
3508	0.00
3509	0.00
3510	-17.00
3511	-123.90
3512	-490.30
3513	-866.50
3514	-1079.40
3515	-1172.60
3516	-1183.90
3517	-1146.50
3518	-967.70
3519	-265.80
3520	-86.20
3521	-54.20
3522	-26.30
3523	-373.40
3524	-8.70
3525	0.00
3526	0.00
3527	0.00
3528	0.00
3529	0.00
3530	0.00
3531	0.00
3532	0.00
3533	0.00
3534	-73.10
3535	-378.40
3536	-689.00
3537	-1346.00
3538	-1467.60
3539	-1435.90
3540	-1534.40
3541	-1911.90
3542	-2581.80
3543	-2999.60
3544	-2617.60
3545	-1549.70
3546	-408.60
3547	-535.40
3548	-103.70
3549	-7.60
3550	0.00
3551	-23.40
3552	0.00
3553	0.00
3554	0.00
3555	0.00
3556	0.00
3557	-90.10
3558	-1244.80
3559	-1350.20
3560	-1466.70
3561	-1511.40
3562	-1839.00
3563	-2603.20
3564	-3440.60
3565	-3926.90
3566	-4643.00
3567	-4937.20
3568	-4728.20
3569	-4591.70
3570	-4105.40
3571	-2272.10
3572	-1157.10
3573	-377.00
3574	-183.00
3575	-268.00
3576	-83.40
3577	-1.40
3578	0.00
3579	16800.00
3580	16800.00
3581	16800.00
3582	-88.70
3583	-199.90
3584	-268.70
3585	-345.60
3586	-356.70
3587	-329.90
3588	-323.10
3589	-269.40
3590	-152.70
3591	0.00
3592	0.00
3593	0.00
3594	0.00
3595	-59.10
3596	0.00
3597	0.00
3598	0.00
3599	0.00
3600	0.00
3601	0.00
3602	0.00
3603	0.00
3604	0.00
3605	0.00
3606	0.00
3607	0.00
3608	0.00
3609	0.00
3610	0.00
3611	0.00
3612	-22.80
3613	-50.60
3614	0.00
3615	0.00
3616	0.00
3617	16800.00
3618	16800.00
3619	16800.00
3620	0.00
3621	0.00
3622	0.00
3623	0.00
3624	0.00
3625	0.00
3626	0.00
3627	0.00
3628	0.00
3629	0.00
3630	0.00
3631	0.00
3632	0.00
3633	0.00
3634	0.00
3635	0.00
3636	0.00
3637	0.00
3638	0.00
3639	0.00
3640	0.00
3641	0.00
3642	0.00
3643	0.00
3644	0.00
3645	0.00
3646	0.00
3647	0.00
3648	0.00
3649	0.00
3650	0.00
3651	0.00
3652	0.00
3653	0.00
3654	0.00
3655	0.00
3656	0.00
3657	0.00
3658	0.00
3659	0.00
3660	-62.90
3661	-60.40
3662	-61.60
3663	0.00
3664	0.00
3665	0.00
3666	0.00
3667	0.00
3668	0.00
3669	0.00
3670	16800.00
3671	16800.00
3672	16800.00
3673	0.00
3674	0.00
3675	0.00
3676	0.00
3677	0.00
3678	0.00
3679	-55.50
3680	-577.60
3681	-865.70
3682	-871.10
3683	-1002.00
3684	-789.60
3685	-438.20
3686	-184.40
3687	0.00
3688	0.00
3689	0.00
3690	0.00
3691	-46.30
3692	0.00
3693	0.00
3694	0.00
3695	0.00
3696	0.00
3697	0.00
3698	0.00
3699	0.00
3700	0.00
3701	0.00
3702	0.00
3703	0.00
3704	0.00
3705	0.00
3706	0.00
3707	-9.80
3708	-72.70
3709	-130.70
3710	-163.10
3711	0.00
3712	0.00
3713	0.00
3714	0.00
3715	0.00
3716	0.00
3717	0.00
3718	0.00
3719	0.00
3720	0.00
3721	0.00
3722	0.00
3723	0.00
3724	0.00
3725	0.00
3726	0.00
3727	0.00
3728	-197.80
3729	-465.20
3730	-482.60
3731	-332.00
3732	-200.80
3733	-169.40
3734	-169.90
3735	-3.60
3736	-1.50
3737	0.00
3738	0.00
3739	-40.80
3740	0.00
3741	16800.00
3742	16800.00
3743	16800.00
3744	0.00
3745	0.00
3746	0.00
3747	0.00
3748	0.00
3749	0.00
3750	0.00
3751	-238.60
3752	-694.30
3753	-976.70
3754	-1111.80
3755	-933.10
3756	-981.50
3757	-457.10
3758	-404.90
3759	-148.20
3760	-61.70
3761	-9.50
3762	0.00
3763	-135.70
3764	0.00
3765	0.00
3766	0.00
3767	0.00
3768	0.00
3769	0.00
3770	0.00
3771	0.00
3772	0.00
3773	0.00
3774	0.00
3775	0.00
3776	0.00
3777	0.00
3778	-13.70
3779	-192.20
3780	-186.20
3781	-112.50
3782	-62.40
3783	0.00
3784	0.00
3785	0.00
3786	0.00
3787	0.00
3788	0.00
3789	0.00
3790	0.00
3791	0.00
3792	0.00
3793	0.00
3794	0.00
3795	0.00
3796	0.00
3797	0.00
3798	-60.40
3799	-150.60
3800	-111.20
3801	-122.50
3802	-94.20
3803	-105.70
3804	-168.40
3805	-158.60
3806	-135.50
3807	0.00
3808	16800.00
3809	16800.00
3810	16800.00
3811	-1.90
3812	0.00
3813	0.00
3814	0.00
3815	0.00
3816	0.00
3817	0.00
3818	0.00
3819	0.00
3820	0.00
3821	0.00
3822	0.00
3823	0.00
3824	-42.90
3825	-315.10
3826	-939.30
3827	-948.10
3828	-1351.40
3829	-1230.10
3830	-989.40
3831	-751.20
3832	-865.30
3833	-686.60
3834	-104.40
3835	-368.60
3836	0.00
3837	0.00
3838	0.00
3839	0.00
3840	0.00
3841	0.00
3842	0.00
3843	0.00
3844	0.00
3845	-7.50
3846	-914.80
3847	-1415.50
3848	-1468.20
3849	-1468.20
3850	-1468.20
3851	-1559.40
3852	-1921.20
3853	-2527.90
3854	-3485.80
3855	-4444.20
3856	-4536.30
3857	-4452.70
3858	-3754.70
3859	-2038.30
3860	-1457.00
3861	-788.10
3862	-501.80
3863	-556.70
3864	-261.80
3865	-121.20
3866	-52.90
3867	-7.50
3868	-82.00
3869	-928.10
3870	-1498.20
3871	-2128.70
3872	-2566.90
3873	-3197.40
3874	-4095.10
3875	-4849.40
3876	-5711.20
3877	-6417.10
3878	-6358.80
3879	-6332.30
3880	-5590.70
3881	-4588.90
3882	-3975.90
3883	-2735.30
3884	-1951.00
3885	-1990.80
3886	-1745.20
3887	-1673.00
3888	-1495.30
3889	-1249.70
3890	-965.80
3891	-666.60
3892	-592.60
3893	-1008.90
3894	-1468.20
3895	-1398.50
3896	-1557.70
3897	-1820.20
3898	-1856.60
3899	-2288.60
3900	-2101.30
3901	-1947.30
3902	-1892.90
3903	-2226.40
3904	-2558.60
3905	-1132.80
3906	-445.30
3907	-768.50
3908	-458.10
3909	-179.20
3910	-68.60
3911	-142.80
3912	-1.40
3913	0.00
3914	16800.00
3915	16800.00
3916	16800.00
3917	-217.60
3918	-1355.90
3919	-1520.30
3920	-1698.20
3921	-1581.80
3922	-1852.90
3923	-2339.90
3924	-3204.70
3925	-4098.40
3926	-4909.80
3927	-5280.60
3928	-5174.80
3929	-4886.30
3930	-4192.10
3931	-2623.40
3932	-1359.70
3933	-482.20
3934	-219.90
3935	-309.00
3936	-101.30
3937	-0.60
3938	0.00
3939	16800.00
3940	16800.00
3941	-351.80
3942	-1503.40
3943	-2154.20
3944	-2605.60
3945	-3536.30
3946	-4893.10
3947	-5732.90
3948	-6479.50
3949	-7184.60
3950	-7255.20
3951	-6911.20
3952	-6492.40
3953	-6189.10
3954	-6293.00
3955	-6337.10
3956	-4464.60
3957	-3168.70
3958	-2405.70
3959	-1966.50
3960	-1341.80
3961	-1011.30
3962	-758.40
3963	-516.80
3964	-532.10
3965	-1034.60
3966	-1573.50
3967	-1901.50
3968	-3421.80
3969	-5012.90
3970	-6095.20
3971	-6541.00
3972	-6466.90
3973	-6465.60
3974	-6364.40
3975	-6094.60
3976	-6010.70
3977	-5744.90
3978	-5455.00
3979	-4284.00
3980	-2410.70
3981	-1767.70
3982	-1195.90
3983	-1094.50
3984	-563.50
3985	-322.50
3986	-261.40
3987	-205.00
3988	-169.00
3989	-233.80
3990	-1305.00
3991	-1604.30
3992	-2118.70
3993	-2859.70
3994	-3459.00
3995	-4854.80
3996	-4439.90
3997	-3621.80
3998	-4865.80
3999	-5312.40
4000	-4505.00
4001	-3523.10
4002	-2144.70
4003	-1659.80
4004	-547.80
4005	-97.80
4006	-44.50
4007	-133.60
4008	-1.90
4009	0.00
4010	16800.00
4011	16800.00
4012	16800.00
4013	16800.00
4014	-201.30
4015	-450.10
4016	-1071.60
4017	-1373.40
4018	-1444.00
4019	-1537.00
4020	-1906.20
4021	-1915.40
4022	-2313.10
4023	-2807.90
4024	-2699.80
4025	-2118.00
4026	-743.40
4027	-394.90
4028	-6.30
4029	0.00
4030	0.00
4031	0.00
4032	0.00
4033	0.00
4034	0.00
4035	0.00
4036	0.00
4037	0.00
4038	-152.30
4039	-700.60
4040	-1285.70
4041	-1458.80
4042	-1454.80
4043	-1442.20
4044	-1815.60
4045	-2154.90
4046	-3242.20
4047	-3807.10
4048	-3787.90
4049	-3253.20
4050	-1727.00
4051	-724.60
4052	-104.20
4053	0.00
4054	0.00
4055	0.00
4056	0.00
4057	0.00
4058	0.00
4059	0.00
4060	0.00
4061	0.00
4062	-346.30
4063	-1166.90
4064	-1489.30
4065	-1718.70
4066	-2086.90
4067	-2834.30
4068	-3586.30
4069	-4367.50
4070	-5124.60
4071	-5292.80
4072	-5087.30
4073	-4953.20
4074	-4761.90
4075	-3700.90
4076	-1682.40
4077	-629.40
4078	-203.20
4079	-372.90
4080	-147.90
4081	-43.40
4082	-5.70
4083	0.00
4084	-65.40
4085	-915.80
4086	-1486.00
4087	-1625.50
4088	-2433.80
4089	-3529.40
4090	-4429.10
4091	-5450.70
4092	-7072.00
4093	-7157.60
4094	-6994.50
4095	-5376.20
4096	-4212.20
4097	-3602.20
4098	-3388.00
4099	-2730.70
4100	-1248.70
4101	-548.30
4102	-206.90
4103	-358.30
4104	-153.10
4105	-29.00
4106	0.00
4107	16800.00
4108	-14.00
4109	-569.20
4110	-1424.80
4111	-1392.10
4112	-2154.40
4113	-3277.20
4114	-3559.80
4115	-3007.10
4116	-3968.30
4117	-3503.10
4118	-2805.70
4119	-3132.60
4120	-3322.30
4121	-4374.50
4122	-3479.50
4123	-2362.60
4124	-1000.30
4125	-464.50
4126	-183.20
4127	-252.80
4128	-88.40
4129	-13.30
4130	0.00
4131	16800.00
4132	16800.00
4133	-88.80
4134	-871.70
4135	-1304.10
4136	-2512.90
4137	-4084.10
4138	-5571.30
4139	-6437.40
4140	-7227.30
4141	-7118.00
4142	-7120.00
4143	-6784.30
4144	-6321.50
4145	-5984.10
4146	-5779.30
4147	-5149.50
4148	-3129.40
4149	-2022.40
4150	-1443.90
4151	-1452.20
4152	-942.70
4153	-633.40
4154	-315.30
4155	-196.30
4156	-174.50
4157	-241.60
4158	-1107.10
4159	-1119.20
4160	-1368.60
4161	-1755.30
4162	-3073.20
4163	-5269.30
4164	-6691.40
4165	-7015.20
4166	-6960.30
4167	-6680.80
4168	-5960.40
4169	-5352.90
4170	-4401.80
4171	-3308.10
4172	-1273.10
4173	-268.30
4174	-155.50
4175	-276.70
4176	-102.20
4177	-13.00
4178	0.00
4179	16800.00
4180	16800.00
4181	-192.50
4182	-1326.30
4183	-1939.70
4184	-2576.40
4185	-3477.40
4186	-4983.30
4187	-5933.00
4188	-6571.80
4189	-6334.00
4190	-6377.80
4191	-6117.50
4192	-5760.10
4193	-5455.90
4194	-4645.10
4195	-3070.90
4196	-1217.30
4197	-282.80
4198	-117.00
4199	-172.80
4200	-43.90
4201	0.00
4202	0.00
4203	0.00
4204	0.00
4205	-365.90
4206	-1634.90
4207	-2157.90
4208	-2600.60
4209	-3286.60
4210	-4030.50
4211	-5037.60
4212	-5642.00
4213	-5791.30
4214	-5667.90
4215	-5661.20
4216	-5507.80
4217	-5198.30
4218	-4697.30
4219	-3020.10
4220	-1261.30
4221	-501.50
4222	-244.00
4223	-290.40
4224	-66.50
4225	0.00
4226	16800.00
4227	16800.00
4228	16800.00
4229	-426.60
4230	-1468.10
4231	-1904.50
4232	-2258.50
4233	-3086.30
4234	-4968.30
4235	-6044.20
4236	-6650.20
4237	-7008.50
4238	-6939.80
4239	-6448.00
4240	-6094.90
4241	-5775.90
4242	-5742.80
4243	-5338.20
4244	-3014.90
4245	-1676.90
4246	-802.90
4247	-868.60
4248	-339.10
4249	-157.80
4250	-76.70
4251	-18.90
4252	-107.20
4253	-970.30
4254	-1832.00
4255	-2595.30
4256	-3222.70
4257	-3972.00
4258	-4197.00
4259	-5411.70
4260	-6298.50
4261	-5718.00
4262	-4463.20
4263	-4769.50
4264	-4980.60
4265	-4358.70
4266	-2968.70
4267	-1958.60
4268	-898.50
4269	-223.60
4270	-104.80
4271	-165.50
4272	-8.80
4273	0.00
4274	0.00
4275	0.00
4276	0.00
4277	-113.60
4278	-1254.30
4279	-1245.40
4280	-1395.00
4281	-1594.00
4282	-1782.30
4283	-2004.10
4284	-2730.70
4285	-3410.80
4286	-3392.40
4287	-3021.90
4288	-1465.50
4289	-371.70
4290	-86.40
4291	-426.30
4292	-38.70
4293	0.00
4294	16800.00
4295	16800.00
4296	16800.00
4297	0.00
4298	0.00
4299	0.00
4300	0.00
4301	0.00
4302	-3.50
4303	-155.80
4304	-610.20
4305	-1248.80
4306	-1285.00
4307	-1277.60
4308	-1237.10
4309	-1346.80
4310	-1030.60
4311	-507.00
4312	-307.60
4313	-164.30
4314	-46.10
4315	-342.10
4316	0.00
4317	0.00
4318	0.00
4319	0.00
4320	0.00
4321	0.00
4322	0.00
4323	0.00
4324	0.00
4325	0.00
4326	0.00
4327	0.00
4328	-111.00
4329	-132.10
4330	-245.80
4331	-476.60
4332	-780.90
4333	-708.10
4334	-647.40
4335	-305.00
4336	-284.40
4337	-213.60
4338	-186.20
4339	-796.60
4340	-67.60
4341	-0.10
4342	0.00
4343	0.00
4344	0.00
4345	0.00
4346	0.00
4347	0.00
4348	16800.00
4349	16800.00
4350	16800.00
4351	0.00
4352	0.00
4353	-179.90
4354	-421.60
4355	-660.50
4356	-1244.60
4357	-873.20
4358	-784.90
4359	-317.50
4360	-41.40
4361	0.00
4362	0.00
4363	-218.60
4364	0.00
4365	0.00
4366	0.00
4367	0.00
4368	0.00
4369	0.00
4370	0.00
4371	0.00
4372	0.00
4373	0.00
4374	-39.30
4375	-487.50
4376	-1119.70
4377	-1460.00
4378	-1468.20
4379	-1471.90
4380	-1642.50
4381	-1679.40
4382	-1602.90
4383	-1001.50
4384	-553.10
4385	-310.70
4386	-269.20
4387	-804.70
4388	-265.60
4389	-111.10
4390	-53.20
4391	-182.30
4392	-15.70
4393	0.00
4394	0.00
4395	0.00
4396	0.00
4397	0.00
4398	-211.60
4399	-598.40
4400	-629.70
4401	-645.40
4402	-777.40
4403	-1427.40
4404	-1696.60
4405	-1958.30
4406	-2184.80
4407	-2566.80
4408	-1822.90
4409	-1001.80
4410	-537.50
4411	-1632.20
4412	-582.40
4413	-220.50
4414	-143.00
4415	-242.50
4416	-42.30
4417	0.00
4418	16800.00
4419	16800.00
4420	16800.00
4421	-257.00
4422	-1311.10
4423	-1870.90
4424	-2811.10
4425	-3798.30
4426	-4745.50
4427	-5420.00
4428	-5942.30
4429	-5718.50
4430	-5264.40
4431	-3581.60
4432	-2339.60
4433	-1425.70
4434	-1020.50
4435	-1313.80
4436	-496.30
4437	-189.00
4438	-85.00
4439	-191.60
4440	-10.70
4441	0.00
4442	0.00
4443	0.00
4444	0.00
4445	0.00
4446	-224.90
4447	-481.80
4448	-758.30
4449	-991.20
4450	-1118.80
4451	-1182.20
4452	-1221.30
4453	-1243.30
4454	-1666.70
4455	-2030.10
4456	-1926.80
4457	-1290.10
4458	-235.60
4459	-510.00
4460	-1.00
4461	0.00
4462	0.00
4463	0.00
4464	0.00
4465	0.00
4466	0.00
4467	0.00
4468	0.00
4469	0.00
4470	-418.20
4471	-951.10
4472	-904.70
4473	-982.50
4474	-1135.50
4475	-1166.80
4476	-801.70
4477	-600.90
4478	-416.10
4479	-60.10
4480	-3.50
4481	0.00
4482	16800.00
4483	-198.00
4484	0.00
4485	0.00
4486	0.00
4487	0.00
4488	0.00
4489	0.00
4490	0.00
4491	0.00
4492	0.00
4493	0.00
4494	0.00
4495	0.00
4496	0.00
4497	0.00
4498	0.00
4499	-15.50
4500	-437.80
4501	-293.90
4502	-340.40
4503	-97.80
4504	-74.70
4505	-17.20
4506	0.00
4507	-207.90
4508	0.00
4509	16800.00
4510	16800.00
4511	16800.00
4512	0.00
4513	0.00
4514	0.00
4515	0.00
4516	0.00
4517	0.00
4518	0.00
4519	0.00
4520	-171.20
4521	-763.80
4522	-812.20
4523	-828.20
4524	-937.50
4525	-940.50
4526	-705.60
4527	-200.90
4528	-146.40
4529	-75.50
4530	-11.40
4531	-248.80
4532	0.00
4533	0.00
4534	0.00
4535	0.00
4536	0.00
4537	0.00
4538	0.00
4539	0.00
4540	0.00
4541	0.00
4542	-414.60
4543	-893.20
4544	-1278.20
4545	-1455.30
4546	-1468.20
4547	-1464.70
4548	-1466.90
4549	-1605.20
4550	-1968.70
4551	-2361.90
4552	-2203.60
4553	-1440.70
4554	-447.80
4555	-716.50
4556	-164.90
4557	-29.80
4558	0.00
4559	-43.50
4560	0.00
4561	0.00
4562	0.00
4563	0.00
4564	0.00
4565	-2.20
4566	-582.80
4567	-758.90
4568	-1384.20
4569	-1468.20
4570	-1789.20
4571	-2569.60
4572	-3679.00
4573	-4608.90
4574	-5093.40
4575	-5348.60
4576	-5178.90
4577	-4870.90
4578	-4358.30
4579	-2812.90
4580	-1619.60
4581	-1146.50
4582	-631.70
4583	-688.60
4584	-334.40
4585	-154.40
4586	-88.60
4587	-38.80
4588	-62.20
4589	-414.30
4590	-1440.00
4591	-1608.80
4592	-2355.00
4593	-3695.70
4594	-5033.80
4595	-5849.80
4596	-6327.50
4597	-6605.90
4598	-6435.30
4599	-5634.80
4600	-4922.50
4601	-4270.80
4602	-3572.10
4603	-3586.90
4604	-2381.90
4605	-1933.40
4606	-1480.30
4607	-1375.30
4608	-877.80
4609	-576.90
4610	-425.70
4611	-302.20
4612	-304.60
4613	-1056.40
4614	-1900.10
4615	-3060.10
4616	-4938.10
4617	-6685.80
4618	-7728.70
4619	-8145.70
4620	-8807.80
4621	-9054.90
4622	-8799.80
4623	-7977.10
4624	-7360.60
4625	-6408.20
4626	-5826.60
4627	-5451.50
4628	-3595.00
4629	-2679.90
4630	-2152.10
4631	-2044.80
4632	-1282.40
4633	-940.20
4634	-585.50
4635	-310.20
4636	-218.00
4637	-296.80
4638	-1376.20
4639	-1982.80
4640	-2810.60
4641	-3900.40
4642	-5743.50
4643	-7048.80
4644	-8166.80
4645	-9007.90
4646	-8675.40
4647	-7680.80
4648	-6747.10
4649	-6199.70
4650	-5883.10
4651	-5156.10
4652	-2816.00
4653	-1656.10
4654	-1117.70
4655	-1388.10
4656	-824.60
4657	-526.60
4658	-429.30
4659	-302.90
4660	-234.10
4661	-572.20
4662	-1177.50
4663	-1122.60
4664	-1356.20
4665	-2478.00
4666	-4753.70
4667	-5053.20
4668	-5701.10
4669	-6783.30
4670	-6809.90
4671	-5188.50
4672	-4801.00
4673	-4090.60
4674	-2131.30
4675	-1882.80
4676	-693.10
4677	-135.70
4678	-54.90
4679	-171.10
4680	-32.10
4681	0.00
4682	16800.00
4683	16800.00
4684	16800.00
4685	16800.00
4686	-0.20
4687	-128.20
4688	-272.30
4689	-929.20
4690	-1512.10
4691	-1946.60
4692	-2445.00
4693	-2192.70
4694	-2426.90
4695	-3762.70
4696	-3584.20
4697	-1342.40
4698	-114.10
4699	-471.10
4700	-5.20
4701	0.00
4702	16800.00
4703	16800.00
4704	16800.00
4705	16800.00
4706	0.00
4707	0.00
4708	0.00
4709	0.00
4710	-25.10
4711	-298.10
4712	-627.70
4713	-1251.00
4714	-1567.40
4715	-1933.30
4716	-2332.20
4717	-2202.80
4718	-1903.20
4719	-1605.30
4720	-2555.30
4721	-2880.00
4722	-1492.00
4723	-1107.10
4724	-150.00
4725	-9.50
4726	0.00
4727	-0.90
4728	0.00
4729	0.00
4730	0.00
4731	0.00
4732	0.00
4733	0.00
4734	-551.40
4735	-1162.60
4736	-1684.70
4737	-2115.70
4738	-2742.30
4739	-3700.30
4740	-4720.90
4741	-5449.90
4742	-6061.60
4743	-5718.70
4744	-5427.70
4745	-5178.20
4746	-5003.30
4747	-4298.90
4748	-1840.40
4749	-593.50
4750	-307.10
4751	-457.10
4752	-127.60
4753	-6.60
4754	0.00
4755	0.00
4756	0.00
4757	-322.10
4758	-1467.60
4759	-1838.20
4760	-2691.40
4761	-4389.00
4762	-6480.90
4763	-7379.20
4764	-8118.70
4765	-8535.40
4766	-8344.70
4767	-7844.40
4768	-7327.00
4769	-6688.70
4770	-6357.40
4771	-6010.40
4772	-3947.90
4773	-2755.70
4774	-1997.80
4775	-1828.70
4776	-1040.00
4777	-659.00
4778	-469.20
4779	-202.60
4780	-185.70
4781	-1340.60
4782	-3119.90
4783	-4523.90
4784	-5953.60
4785	-7616.40
4786	-9177.20
4787	-10964.30
4788	-11967.00
4789	-11984.10
4790	-11553.40
4791	-10415.30
4792	-9526.50
4793	-9058.10
4794	-8664.00
4795	-8261.90
4796	-6724.10
4797	-5178.10
4798	-4297.80
4799	-3657.20
4800	-2724.30
4801	-2097.90
4802	-1717.60
4803	-1596.80
4804	-1541.70
4805	-1795.60
4806	-3234.50
4807	-4262.40
4808	-5712.80
4809	-7355.80
4810	-9629.40
4811	-11450.90
4812	-12508.60
4813	-12294.20
4814	-11673.90
4815	-10424.00
4816	-9569.30
4817	-8880.60
4818	-8696.60
4819	-8216.80
4820	-6731.20
4821	-5815.20
4822	-5180.60
4823	-4084.20
4824	-3021.40
4825	-2161.60
4826	-1764.80
4827	-1609.70
4828	-1480.70
4829	-1654.40
4830	-2409.50
4831	-3569.60
4832	-5691.30
4833	-7110.80
4834	-8195.00
4835	-8035.80
4836	-10187.20
4837	-11174.90
4838	-10272.50
4839	-9362.70
4840	-7552.40
4841	-5965.40
4842	-4624.20
4843	-4029.80
4844	-2573.40
4845	-1730.10
4846	-1161.30
4847	-1242.40
4848	-575.60
4849	-263.50
4850	-102.30
4851	-26.50
4852	-20.00
4853	-200.30
4854	-924.50
4855	-1277.60
4856	-1626.80
4857	-2570.80
4858	-4086.80
4859	-4877.30
4860	-4788.50
4861	-4047.20
4862	-3987.10
4863	-4661.90
4864	-4432.60
4865	-3793.30
4866	-1969.20
4867	-1418.30
4868	-630.90
4869	-124.60
4870	-19.00
4871	-98.20
4872	0.00
4873	16800.00
4874	16800.00
4875	16800.00
4876	16800.00
4877	0.00
4878	-324.20
4879	-580.20
4880	-919.20
4881	-1014.30
4882	-654.10
4883	-975.10
4884	-1104.40
4885	-982.30
4886	-820.40
4887	-446.50
4888	-294.50
4889	-87.20
4890	-21.40
4891	-371.00
4892	-4.90
4893	0.00
4894	16800.00
4895	16800.00
4896	16800.00
4897	0.00
4898	0.00
4899	0.00
4900	0.00
4901	0.00
4902	-6.50
4903	-23.60
4904	-109.30
4905	-175.30
4906	-216.70
4907	-276.80
4908	-559.70
4909	-825.60
4910	-801.30
4911	-540.30
4912	-1013.10
4913	-1082.90
4914	-249.30
4915	-988.90
4916	-86.40
4917	-1.90
4918	0.00
4919	-14.00
4920	0.00
4921	0.00
4922	0.00
4923	0.00
4924	0.00
4925	0.00
4926	-318.90
4927	-630.80
4928	-905.30
4929	-1403.40
4930	-1988.60
4931	-2836.90
4932	-4184.00
4933	-4973.10
4934	-4712.10
4935	-4579.40
4936	-4151.10
4937	-2333.20
4938	-780.80
4939	-1516.60
4940	-403.30
4941	-76.60
4942	-9.00
4943	-114.10
4944	0.00
4945	0.00
4946	0.00
4947	0.00
4948	0.00
4949	0.00
4950	-270.50
4951	-299.60
4952	-419.20
4953	-567.40
4954	-743.90
4955	-971.60
4956	-1215.20
4957	-1591.70
4958	-1735.30
4959	-1164.30
4960	-763.50
4961	-251.70
4962	-101.60
4963	-888.00
4964	-23.40
4965	0.00
4966	0.00
4967	0.00
4968	0.00
4969	0.00
4970	0.00
4971	0.00
4972	0.00
4973	0.00
4974	0.00
4975	-100.80
4976	-597.60
4977	-1350.90
4978	-1853.50
4979	-2502.40
4980	-3944.30
4981	-5114.30
4982	-5802.60
4983	-5465.70
4984	-4795.50
4985	-3500.10
4986	-2188.10
4987	-2198.70
4988	-1168.80
4989	-303.80
4990	-228.60
4991	-607.70
4992	-197.60
4993	-108.70
4994	-26.70
4995	-0.10
4996	0.00
4997	-79.70
4998	-832.70
4999	-1113.40
5000	-2603.40
5001	-4941.30
5002	-6836.40
5003	-7752.60
5004	-9234.50
5005	-9748.40
5006	-9473.00
5007	-8693.60
5008	-7797.30
5009	-6988.00
5010	-5787.20
5011	-4394.00
5012	-2389.60
5013	-1823.40
5014	-1382.30
5015	-1712.50
5016	-1096.70
5017	-538.60
5018	-337.00
5019	-248.00
5020	-202.90
5021	-443.80
5022	-1477.20
5023	-1687.60
5024	-3266.00
5025	-5254.70
5026	-7059.70
5027	-7465.90
5028	-7633.10
5029	-7204.50
5030	-6724.80
5031	-5039.40
5032	-4746.00
5033	-4005.80
5034	-2941.60
5035	-2759.70
5036	-1957.20
5037	-1409.50
5038	-1020.30
5039	-1179.30
5040	-455.70
5041	-208.50
5042	-144.40
5043	-79.60
5044	-56.00
5045	-181.50
5046	-1330.50
5047	-2001.40
5048	-2921.90
5049	-4681.10
5050	-6282.10
5051	-7940.30
5052	-9325.10
5053	-8965.50
5054	-8417.80
5055	-7451.10
5056	-6746.80
5057	-6123.80
5058	-5118.20
5059	-4141.30
5060	-2185.30
5061	-992.30
5062	-480.30
5063	-582.30
5064	-147.20
5065	-10.10
5066	0.00
5067	16800.00
5068	16800.00
5069	-263.50
5070	-1436.30
5071	-1860.30
5072	-2611.90
5073	-4101.70
5074	-5541.80
5075	-5468.40
5076	-4896.60
5077	-4619.50
5078	-3120.00
5079	-2281.70
5080	-2397.10
5081	-1392.30
5082	-952.70
5083	-1714.30
5084	-976.50
5085	-342.40
5086	-234.70
5087	-382.10
5088	-148.80
5089	-37.80
5090	-1.50
5091	0.00
5092	16800.00
5093	-14.90
5094	-757.50
5095	-927.60
5096	-1203.60
5097	-1463.00
5098	-1587.90
5099	-2130.10
5100	-2667.90
5101	-2805.40
5102	-2907.40
5103	-3628.00
5104	-2302.40
5105	-1050.00
5106	-366.40
5107	-1314.90
5108	-289.50
5109	-63.30
5110	-1.10
5111	-51.90
5112	0.00
5113	16800.00
5114	16800.00
5115	16800.00
5116	16800.00
5117	0.00
5118	-126.80
5119	-390.70
5120	-587.60
5121	-536.60
5122	-921.60
5123	-1228.30
5124	-1612.80
5125	-1919.80
5126	-1842.10
5127	-1193.50
5128	-845.70
5129	-477.50
5130	-124.50
5131	-957.10
5132	-24.50
5133	0.00
5134	0.00
5135	0.00
5136	0.00
5137	0.00
5138	0.00
5139	0.00
5140	0.00
5141	0.00
5142	-319.70
5143	-927.10
5144	-1363.80
5145	-1580.50
5146	-1930.40
5147	-2507.30
5148	-2604.90
5149	-3361.00
5150	-4613.80
5151	-4734.20
5152	-4272.90
5153	-3320.90
5154	-1282.10
5155	-1325.40
5156	-244.40
5157	-14.40
5158	0.00
5159	-25.20
5160	0.00
5161	0.00
5162	0.00
5163	0.00
5164	0.00
5165	0.00
5166	0.00
5167	-101.10
5168	-573.50
5169	-1194.80
5170	-1371.10
5171	-1158.90
5172	-1473.00
5173	-1840.40
5174	-3441.40
5175	-4515.00
5176	-3609.50
5177	-2762.30
5178	-851.50
5179	-1318.90
5180	-72.60
5181	0.00
5182	16800.00
5183	16800.00
5184	16800.00
5185	0.00
5186	0.00
5187	0.00
5188	0.00
5189	0.00
5190	-16.10
5191	-564.80
5192	-1188.40
5193	-1163.40
5194	-1262.40
5195	-1588.90
5196	-2152.50
5197	-2060.40
5198	-2533.80
5199	-2908.20
5200	-2870.00
5201	-1625.50
5202	-392.10
5203	-884.70
5204	-101.00
5205	-7.10
5206	0.00
5207	0.00
5208	0.00
5209	0.00
5210	0.00
5211	0.00
5212	0.00
5213	0.00
5214	-583.90
5215	-1194.80
5216	-1660.90
5217	-1931.30
5218	-2349.80
5219	-3439.30
5220	-4171.10
5221	-4982.80
5222	-5641.70
5223	-5476.90
5224	-5099.20
5225	-4687.40
5226	-3638.30
5227	-2493.30
5228	-1089.00
5229	-351.40
5230	-199.60
5231	-285.80
5232	-66.20
5233	0.00
5234	0.00
5235	0.00
5236	0.00
5237	0.00
5238	-470.80
5239	-1016.50
5240	-1559.30
5241	-2449.30
5242	-4384.10
5243	-5539.20
5244	-6466.20
5245	-7322.90
5246	-7493.40
5247	-7050.20
5248	-6442.80
5249	-5577.90
5250	-4502.90
5251	-4098.20
5252	-2751.20
5253	-2002.30
5254	-1405.80
5255	-1420.90
5256	-548.60
5257	-216.20
5258	-109.70
5259	-23.20
5260	-0.90
5261	-330.30
5262	-1446.90
5263	-1768.00
5264	-3046.10
5265	-4874.60
5266	-6872.80
5267	-8682.30
5268	-10543.20
5269	-11153.70
5270	-10823.30
5271	-9744.00
5272	-9083.00
5273	-8414.70
5274	-7784.60
5275	-7878.10
5276	-6747.40
5277	-5333.80
5278	-4208.90
5279	-3583.10
5280	-2856.10
5281	-2195.40
5282	-1774.60
5283	-1306.30
5284	-928.40
5285	-995.10
5286	-1765.80
5287	-1558.50
5288	-1878.30
5289	-3108.10
5290	-5946.40
5291	-8150.40
5292	-9522.40
5293	-9779.00
5294	-9080.20
5295	-7956.20
5296	-7144.80
5297	-6309.00
5298	-5655.60
5299	-5363.50
5300	-3349.20
5301	-1993.00
5302	-1151.50
5303	-1264.50
5304	-632.00
5305	-346.30
5306	-149.90
5307	-31.70
5308	-0.60
5309	-306.00
5310	-1548.80
5311	-2460.10
5312	-4011.20
5313	-6152.80
5314	-8597.00
5315	-10589.70
5316	-12157.50
5317	-12814.00
5318	-11973.60
5319	-10398.20
5320	-9489.40
5321	-8662.00
5322	-8294.10
5323	-8150.60
5324	-6652.60
5325	-5672.30
5326	-4753.40
5327	-4055.40
5328	-3410.60
5329	-3354.50
5330	-2976.70
5331	-2240.10
5332	-1796.70
5333	-2075.80
5334	-4010.20
5335	-5026.70
5336	-8128.20
5337	-10954.90
5338	-13339.10
5339	-14702.80
5340	-15343.70
5341	-16026.50
5342	-15948.70
5343	-16128.30
5344	-14670.50
5345	-13070.40
5346	-11459.60
5347	-10563.50
5348	-9225.20
5349	-8422.30
5350	-6860.90
5351	-5753.40
5352	-4660.10
5353	-3641.90
5354	-2953.00
5355	-2387.50
5356	-2090.30
5357	-2020.70
5358	-3231.90
5359	-4312.60
5360	-7464.20
5361	-11744.50
5362	-14110.90
5363	-15235.90
5364	-16335.80
5365	-16667.00
5366	-15852.80
5367	-15999.30
5368	-15749.90
5369	-15112.60
5370	-13779.60
5371	-11578.50
5372	-10728.20
5373	-10226.70
5374	-8154.30
5375	-6056.80
5376	-4649.20
5377	-3697.30
5378	-3083.90
5379	-2413.30
5380	-2104.80
5381	-2069.30
5382	-3650.50
5383	-4647.90
5384	-6045.70
5385	-8292.40
5386	-9274.90
5387	-9802.50
5388	-10685.20
5389	-11160.10
5390	-9927.70
5391	-8167.60
5392	-7238.90
5393	-5486.90
5394	-3639.40
5395	-3579.10
5396	-2387.70
5397	-1524.10
5398	-1117.10
5399	-1216.30
5400	-773.10
5401	-430.50
5402	-221.10
5403	-81.20
5404	-31.90
5405	-309.00
5406	-1383.20
5407	-1294.00
5408	-1397.70
5409	-1646.00
5410	-2356.80
5411	-3173.80
5412	-3817.80
5413	-4120.70
5414	-4179.30
5415	-3905.60
5416	-4639.10
5417	-3083.40
5418	-1947.50
5419	-2521.30
5420	-1520.10
5421	-536.40
5422	-296.90
5423	-318.00
5424	-86.60
5425	-0.20
5426	0.00
5427	16800.00
5428	16800.00
5429	-9.60
5430	-1012.30
5431	-1312.80
5432	-1699.10
5433	-2158.50
5434	-3003.90
5435	-4052.20
5436	-5006.50
5437	-6669.00
5438	-7804.70
5439	-7183.80
5440	-6356.10
5441	-5642.40
5442	-4685.00
5443	-4242.00
5444	-2807.40
5445	-1841.10
5446	-1215.10
5447	-1425.90
5448	-679.50
5449	-261.10
5450	-88.40
5451	-21.30
5452	-20.00
5453	-233.20
5454	-1668.50
5455	-1999.80
5456	-3370.10
5457	-4848.70
5458	-6555.90
5459	-8005.70
5460	-9166.60
5461	-9189.20
5462	-8684.80
5463	-7245.70
5464	-5693.20
5465	-4052.10
5466	-2630.10
5467	-2843.90
5468	-1653.90
5469	-614.80
5470	-310.40
5471	-309.20
5472	-53.20
5473	0.00
5474	16800.00
5475	16800.00
5476	16800.00
5477	16800.00
5478	-814.80
5479	-1408.90
5480	-1810.40
5481	-3401.90
5482	-5161.10
5483	-7261.30
5484	-8903.60
5485	-9616.10
5486	-9277.10
5487	-7951.10
5488	-6843.00
5489	-5427.90
5490	-4152.50
5491	-4034.60
5492	-2484.50
5493	-1491.10
5494	-951.50
5495	-991.20
5496	-359.40
5497	-163.20
5498	-24.20
5499	0.00
5500	16800.00
5501	-24.60
5502	-1235.00
5503	-1468.20
5504	-1472.50
5505	-2357.90
5506	-3616.10
5507	-4497.50
5508	-5716.20
5509	-6299.20
5510	-8050.80
5511	-6969.70
5512	-5373.10
5513	-4083.40
5514	-2515.70
5515	-2784.80
5516	-1778.40
5517	-859.60
5518	-471.20
5519	-898.60
5520	-238.50
5521	-76.60
5522	-0.20
5523	0.00
5524	16800.00
5525	-27.20
5526	-1171.80
5527	-1375.60
5528	-1580.20
5529	-2427.20
5530	-3797.10
5531	-4794.60
5532	-6795.70
5533	-7252.80
5534	-7375.00
5535	-6722.30
5536	-5807.50
5537	-4741.90
5538	-2534.30
5539	-2106.20
5540	-360.40
5541	-17.70
5542	-41.00
5543	-126.20
5544	-0.40
5545	0.00
5546	16800.00
5547	16800.00
5548	16800.00
5549	16800.00
5550	-320.70
5551	-1011.60
5552	-1442.60
5553	-1747.30
5554	-3444.50
5555	-4868.40
5556	-6447.20
5557	-7402.50
5558	-7594.40
5559	-6723.00
5560	-5844.50
5561	-5009.80
5562	-3341.40
5563	-2636.50
5564	-1358.70
5565	-396.70
5566	-188.90
5567	-193.20
5568	-30.90
5569	0.00
5570	0.00
5571	0.00
5572	0.00
5573	0.00
5574	-73.60
5575	-190.40
5576	-641.10
5577	-581.50
5578	-888.10
5579	-639.80
5580	-513.00
5581	-404.60
5582	-253.90
5583	-32.20
5584	0.00
5585	0.00
5586	0.00
5587	-461.00
5588	-0.80
5589	0.00
5590	0.00
5591	0.00
5592	0.00
5593	0.00
5594	0.00
5595	0.00
5596	0.00
5597	0.00
5598	0.00
5599	-69.10
5600	-551.70
5601	-1290.30
5602	-1135.80
5603	-885.60
5604	-865.00
5605	-772.60
5606	-348.80
5607	-0.70
5608	0.00
5609	0.00
5610	16800.00
5611	16800.00
5612	16800.00
5613	0.00
5614	0.00
5615	0.00
5616	0.00
5617	0.00
5618	0.00
5619	0.00
5620	0.00
5621	0.00
5622	-16.30
5623	-388.80
5624	-621.50
5625	-776.70
5626	-992.30
5627	-1183.60
5628	-1412.00
5629	-1499.80
5630	-1230.20
5631	-587.20
5632	-233.50
5633	-129.90
5634	-62.60
5635	-826.70
5636	-55.60
5637	-5.70
5638	0.00
5639	-52.20
5640	0.00
5641	0.00
5642	0.00
5643	0.00
5644	0.00
5645	0.00
5646	-48.40
5647	-114.50
5648	-271.70
5649	-882.40
5650	-1418.20
5651	-2498.30
5652	-3736.50
5653	-4127.90
5654	-4549.70
5655	-4133.70
5656	-3680.80
5657	-2749.70
5658	-856.30
5659	-1707.60
5660	-620.80
5661	-144.90
5662	-72.10
5663	-187.30
5664	-52.60
5665	0.00
5666	0.00
5667	0.00
5668	0.00
5669	0.00
5670	-326.30
5671	-407.60
5672	-840.00
5673	-692.80
5674	-1165.30
5675	-1972.30
5676	-3289.10
5677	-3333.40
5678	-4063.20
5679	-3377.30
5680	-3119.90
5681	-1680.80
5682	-341.30
5683	-1539.40
5684	-293.80
5685	-5.20
5686	0.00
5687	-12.00
5688	0.00
5689	0.00
5690	0.00
5691	0.00
5692	0.00
5693	16800.00
5694	-269.10
5695	-1125.20
5696	-1465.50
5697	-1613.00
5698	-3118.70
5699	-4189.30
5700	-4747.70
5701	-4374.70
5702	-4788.50
5703	-4738.50
5704	-3940.50
5705	-2370.40
5706	-758.60
5707	-1393.20
5708	-703.30
5709	-150.50
5710	-57.00
5711	-145.90
5712	-0.50
5713	0.00
5714	0.00
5715	0.00
5716	0.00
5717	16800.00
5718	-170.50
5719	-874.10
5720	-1444.00
5721	-1468.20
5722	-1787.60
5723	-2756.60
5724	-3566.30
5725	-3874.90
5726	-3172.80
5727	-1722.30
5728	-1932.60
5729	-847.40
5730	-157.20
5731	-572.90
5732	-151.20
5733	0.00
5734	0.00
5735	0.00
5736	0.00
5737	0.00
5738	0.00
5739	0.00
5740	0.00
5741	0.00
5742	-122.30
5743	-785.00
5744	-1422.10
5745	-1468.20
5746	-2109.20
5747	-2953.80
5748	-3289.90
5749	-3432.90
5750	-3375.90
5751	-2767.70
5752	-2206.20
5753	-938.40
5754	-482.20
5755	-1255.10
5756	-544.00
5757	-108.70
5758	-47.20
5759	-167.10
5760	-4.20
5761	0.00
5762	16800.00
5763	16800.00
5764	16800.00
5765	0.00
5766	-24.40
5767	-127.10
5768	-240.70
5769	-308.30
5770	-339.90
5771	-401.90
5772	-489.00
5773	-472.30
5774	-704.40
5775	-376.40
5776	-80.10
5777	-0.40
5778	0.00
5779	-259.20
5780	0.00
5781	0.00
5782	0.00
5783	0.00
5784	0.00
5785	0.00
5786	0.00
5787	0.00
5788	0.00
5789	0.00
5790	0.00
5791	0.00
5792	-4.10
5793	-94.50
5794	-118.00
5795	-143.70
5796	-199.70
5797	-237.90
5798	-152.60
5799	0.00
5800	0.00
5801	0.00
5802	0.00
5803	0.00
5804	0.00
5805	0.00
5806	0.00
5807	0.00
5808	0.00
5809	0.00
5810	0.00
5811	0.00
5812	0.00
5813	0.00
5814	0.00
5815	0.00
5816	0.00
5817	0.00
5818	16800.00
5819	16800.00
5820	16800.00
5821	0.00
5822	0.00
5823	0.00
5824	0.00
5825	0.00
5826	0.00
5827	0.00
5828	0.00
5829	0.00
5830	0.00
5831	0.00
5832	0.00
5833	0.00
5834	0.00
5835	0.00
5836	0.00
5837	0.00
5838	0.00
5839	0.00
5840	0.00
5841	0.00
5842	0.00
5843	0.00
5844	-110.80
5845	-121.70
5846	-89.40
5847	0.00
5848	0.00
5849	0.00
5850	0.00
5851	0.00
5852	0.00
5853	0.00
5854	0.00
5855	0.00
5856	0.00
5857	0.00
5858	0.00
5859	0.00
5860	0.00
5861	0.00
5862	0.00
5863	0.00
5864	-141.80
5865	-679.00
5866	-1029.90
5867	-1300.90
5868	-1429.10
5869	-1292.40
5870	-1068.70
5871	-657.00
5872	-196.70
5873	0.00
5874	0.00
5875	-57.10
5876	0.00
5877	0.00
5878	0.00
5879	0.00
5880	0.00
5881	0.00
5882	0.00
5883	0.00
5884	0.00
5885	0.00
5886	0.00
5887	-350.10
5888	-1116.80
5889	-1468.20
5890	-1428.70
5891	-1491.60
5892	-1586.80
5893	-1998.50
5894	-2262.70
5895	-1598.80
5896	-907.00
5897	-124.70
5898	-0.90
5899	-273.50
5900	0.00
5901	16800.00
5902	16800.00
5903	16800.00
5904	0.00
5905	0.00
5906	0.00
5907	0.00
5908	0.00
5909	0.00
5910	0.00
5911	-31.80
5912	-289.50
5913	-620.10
5914	-970.20
5915	-1111.50
5916	-1227.00
5917	-1210.90
5918	-987.60
5919	-386.60
5920	-114.00
5921	-7.50
5922	0.00
5923	-218.00
5924	0.00
5925	0.00
5926	0.00
5927	0.00
5928	0.00
5929	0.00
5930	0.00
5931	0.00
5932	0.00
5933	0.00
5934	0.00
5935	0.00
5936	0.00
5937	-11.50
5938	-336.50
5939	-1011.80
5940	-1302.40
5941	-1328.90
5942	-1303.00
5943	-906.40
5944	-461.10
5945	-21.00
5946	0.00
5947	-275.40
5948	0.00
5949	0.00
5950	0.00
5951	0.00
5952	0.00
5953	0.00
5954	0.00
5955	0.00
5956	0.00
5957	0.00
5958	0.00
5959	0.00
5960	-175.40
5961	-1089.70
5962	-1486.40
5963	-2166.60
5964	-3037.00
5965	-3496.50
5966	-3470.20
5967	-2651.00
5968	-1861.90
5969	-524.20
5970	-34.00
5971	-319.00
5972	-30.10
5973	0.00
5974	16800.00
5975	16800.00
5976	16800.00
5977	0.00
5978	0.00
5979	0.00
5980	0.00
5981	0.00
5982	-16.50
5983	-367.40
5984	-473.00
5985	-735.50
5986	-1005.70
5987	-1171.40
5988	-1248.70
5989	-1191.10
5990	-1525.60
5991	-1291.70
5992	-491.10
5993	-50.60
5994	-5.30
5995	-324.80
5996	0.00
5997	0.00
5998	0.00
5999	0.00
6000	0.00
6001	0.00
6002	0.00
6003	0.00
6004	0.00
6005	0.00
6006	-61.90
6007	-749.60
6008	-1435.80
6009	-1564.50
6010	-2548.50
6011	-3354.50
6012	-3852.20
6013	-4164.70
6014	-4214.60
6015	-4215.40
6016	-3405.00
6017	-2030.40
6018	-924.60
6019	-1334.90
6020	-786.00
6021	-120.10
6022	-23.00
6023	-152.70
6024	-10.10
6025	0.00
6026	0.00
6027	0.00
6028	0.00
6029	0.00
6030	-483.10
6031	-1308.20
6032	-1470.90
6033	-2319.70
6034	-3873.20
6035	-4696.10
6036	-5878.70
6037	-6005.40
6038	-6215.70
6039	-5630.90
6040	-5093.00
6041	-3747.30
6042	-2568.00
6043	-2688.60
6044	-1793.80
6045	-1064.90
6046	-742.10
6047	-793.90
6048	-460.10
6049	-307.10
6050	-199.10
6051	-51.40
6052	-0.10
6053	0.00
6054	-405.40
6055	-216.10
6056	-299.10
6057	-405.00
6058	-423.40
6059	-397.20
6060	-479.30
6061	-432.90
6062	-247.70
6063	0.00
6064	0.00
6065	0.00
6066	16800.00
6067	-97.30
6068	0.00
6069	0.00
6070	0.00
6071	0.00
6072	0.00
6073	0.00
6074	0.00
6075	0.00
6076	0.00
6077	0.00
6078	0.00
6079	0.00
6080	0.00
6081	0.00
6082	-6.20
6083	-67.40
6084	-162.30
6085	-177.80
6086	-127.10
6087	0.00
6088	0.00
6089	0.00
6090	0.00
6091	-69.90
6092	0.00
6093	0.00
6094	0.00
6095	0.00
6096	0.00
6097	0.00
6098	0.00
6099	0.00
6100	0.00
6101	0.00
6102	-8.70
6103	-503.00
6104	-1013.00
6105	-1452.20
6106	-1475.90
6107	-1954.40
6108	-2302.80
6109	-2714.00
6110	-2947.90
6111	-2142.10
6112	-1159.60
6113	-137.30
6114	-0.90
6115	-216.10
6116	0.00
6117	16800.00
6118	16800.00
6119	16800.00
6120	0.00
6121	0.00
6122	0.00
6123	0.00
6124	0.00
6125	0.00
6126	0.00
6127	-241.30
6128	-1140.30
6129	-1468.20
6130	-1703.10
6131	-2283.90
6132	-2654.60
6133	-2878.50
6134	-2963.20
6135	-2202.70
6136	-1212.50
6137	-316.00
6138	-37.00
6139	-282.80
6140	-59.90
6141	0.00
6142	0.00
6143	0.00
6144	0.00
6145	0.00
6146	0.00
6147	0.00
6148	0.00
6149	0.00
6150	0.00
6151	0.00
6152	0.00
6153	0.00
6154	0.00
6155	-17.90
6156	-195.70
6157	-214.10
6158	-93.60
6159	0.00
6160	0.00
6161	0.00
6162	0.00
6163	0.00
6164	0.00
6165	0.00
6166	0.00
6167	0.00
6168	0.00
6169	0.00
6170	0.00
6171	0.00
6172	0.00
6173	0.00
6174	0.00
6175	-75.60
6176	-742.30
6177	-1242.10
6178	-1022.70
6179	-1123.00
6180	-1689.10
6181	-1423.00
6182	-1112.70
6183	-415.50
6184	-32.00
6185	0.00
6186	16800.00
6187	-77.10
6188	0.00
6189	16800.00
6190	16800.00
6191	16800.00
6192	0.00
6193	0.00
6194	0.00
6195	0.00
6196	0.00
6197	0.00
6198	0.00
6199	0.00
6200	0.00
6201	0.00
6202	0.00
6203	-69.80
6204	-322.30
6205	-177.20
6206	-85.70
6207	0.00
6208	0.00
6209	0.00
6210	0.00
6211	0.00
6212	0.00
6213	0.00
6214	0.00
6215	0.00
6216	0.00
6217	0.00
6218	0.00
6219	0.00
6220	0.00
6221	0.00
6222	0.00
6223	0.00
6224	0.00
6225	0.00
6226	-1.20
6227	-35.90
6228	-68.70
6229	-58.00
6230	-8.60
6231	0.00
6232	0.00
6233	0.00
6234	0.00
6235	0.00
6236	0.00
6237	0.00
6238	0.00
6239	0.00
6240	0.00
6241	0.00
6242	0.00
6243	0.00
6244	0.00
6245	0.00
6246	0.00
6247	0.00
6248	0.00
6249	0.00
6250	0.00
6251	0.00
6252	0.00
6253	0.00
6254	0.00
6255	0.00
6256	0.00
6257	0.00
6258	0.00
6259	0.00
6260	0.00
6261	16800.00
6262	16800.00
6263	16800.00
6264	0.00
6265	0.00
6266	0.00
6267	0.00
6268	0.00
6269	0.00
6270	0.00
6271	0.00
6272	0.00
6273	0.00
6274	0.00
6275	0.00
6276	-0.10
6277	-24.80
6278	-17.90
6279	0.00
6280	0.00
6281	0.00
6282	0.00
6283	0.00
6284	0.00
6285	0.00
6286	0.00
6287	0.00
6288	0.00
6289	0.00
6290	0.00
6291	0.00
6292	0.00
6293	0.00
6294	0.00
6295	0.00
6296	0.00
6297	0.00
6298	0.00
6299	0.00
6300	0.00
6301	0.00
6302	0.00
6303	0.00
6304	0.00
6305	0.00
6306	0.00
6307	0.00
6308	0.00
6309	0.00
6310	0.00
6311	0.00
6312	0.00
6313	0.00
6314	0.00
6315	0.00
6316	0.00
6317	0.00
6318	0.00
6319	0.00
6320	0.00
6321	0.00
6322	0.00
6323	16800.00
6324	16800.00
6325	16800.00
6326	0.00
6327	0.00
6328	0.00
6329	0.00
6330	0.00
6331	0.00
6332	0.00
6333	0.00
6334	0.00
6335	0.00
6336	0.00
6337	0.00
6338	0.00
6339	0.00
6340	0.00
6341	0.00
6342	0.00
6343	0.00
6344	0.00
6345	0.00
6346	0.00
6347	0.00
6348	0.00
6349	0.00
6350	0.00
6351	0.00
6352	0.00
6353	0.00
6354	0.00
6355	0.00
6356	0.00
6357	0.00
6358	0.00
6359	0.00
6360	0.00
6361	0.00
6362	16800.00
6363	16800.00
6364	16800.00
6365	0.00
6366	0.00
6367	0.00
6368	0.00
6369	0.00
6370	0.00
6371	0.00
6372	0.00
6373	0.00
6374	0.00
6375	0.00
6376	0.00
6377	0.00
6378	0.00
6379	0.00
6380	0.00
6381	16800.00
6382	16800.00
6383	16800.00
6384	16800.00
6385	0.00
6386	0.00
6387	0.00
6388	0.00
6389	0.00
6390	0.00
6391	0.00
6392	0.00
6393	0.00
6394	0.00
6395	0.00
6396	0.00
6397	-0.90
6398	0.00
6399	0.00
6400	0.00
6401	0.00
6402	0.00
6403	0.00
6404	16800.00
6405	16800.00
6406	16800.00
6407	0.00
6408	0.00
6409	0.00
6410	0.00
6411	0.00
6412	0.00
6413	0.00
6414	0.00
6415	0.00
6416	0.00
6417	0.00
6418	0.00
6419	16800.00
6420	16800.00
6421	16800.00
6422	0.00
6423	0.00
6424	0.00
6425	0.00
6426	0.00
6427	0.00
6428	0.00
6429	0.00
6430	0.00
6431	0.00
6432	0.00
6433	0.00
6434	0.00
6435	0.00
6436	0.00
6437	0.00
6438	0.00
6439	16800.00
6440	16800.00
6441	16800.00
6442	16800.00
6443	0.00
6444	0.00
6445	0.00
6446	0.00
6447	0.00
6448	0.00
6449	0.00
6450	0.00
6451	0.00
6452	0.00
6453	0.00
6454	0.00
6455	0.00
6456	0.00
6457	0.00
6458	0.00
6459	0.00
6460	0.00
6461	0.00
6462	0.00
6463	16800.00
6464	16800.00
6465	16800.00
6466	16800.00
6467	0.00
6468	0.00
6469	0.00
6470	0.00
6471	0.00
6472	0.00
6473	0.00
6474	0.00
6475	0.00
6476	0.00
6477	0.00
6478	0.00
6479	0.00
6480	0.00
6481	0.00
6482	0.00
6483	0.00
6484	0.00
6485	0.00
6486	0.00
6487	0.00
6488	0.00
6489	0.00
6490	0.00
6491	0.00
6492	0.00
6493	0.00
6494	0.00
6495	0.00
6496	0.00
6497	0.00
6498	0.00
6499	16800.00
6500	16800.00
6501	16800.00
6502	0.00
6503	0.00
6504	0.00
6505	0.00
6506	0.00
6507	0.00
6508	0.00
6509	0.00
6510	0.00
6511	0.00
6512	0.00
6513	0.00
6514	0.00
6515	0.00
6516	0.00
6517	0.00
6518	0.00
6519	0.00
6520	0.00
6521	0.00
6522	0.00
6523	0.00
6524	0.00
6525	0.00
6526	0.00
6527	16800.00
6528	16800.00
6529	16800.00
6530	0.00
6531	0.00
6532	0.00
6533	0.00
6534	0.00
6535	0.00
6536	0.00
6537	0.00
6538	0.00
6539	0.00
6540	0.00
6541	0.00
6542	0.00
6543	0.00
6544	0.00
6545	0.00
6546	0.00
6547	0.00
6548	0.00
6549	0.00
6550	0.00
6551	0.00
6552	0.00
6553	0.00
6554	0.00
6555	0.00
6556	0.00
6557	0.00
6558	0.00
6559	0.00
6560	0.00
6561	0.00
6562	0.00
6563	0.00
6564	0.00
6565	0.00
6566	0.00
6567	0.00
6568	0.00
6569	0.00
6570	0.00
6571	16800.00
6572	16800.00
6573	16800.00
6574	0.00
6575	0.00
6576	0.00
6577	0.00
6578	0.00
6579	0.00
6580	0.00
6581	0.00
6582	0.00
6583	0.00
6584	0.00
6585	0.00
6586	0.00
6587	0.00
6588	0.00
6589	0.00
6590	0.00
6591	0.00
6592	0.00
6593	0.00
6594	0.00
6595	0.00
6596	0.00
6597	0.00
6598	0.00
6599	0.00
6600	0.00
6601	0.00
6602	0.00
6603	0.00
6604	0.00
6605	0.00
6606	0.00
6607	0.00
6608	0.00
6609	0.00
6610	0.00
6611	0.00
6612	0.00
6613	0.00
6614	0.00
6615	0.00
6616	0.00
6617	0.00
6618	16800.00
6619	16800.00
6620	16800.00
6621	0.00
6622	0.00
6623	0.00
6624	0.00
6625	0.00
6626	0.00
6627	0.00
6628	0.00
6629	0.00
6630	0.00
6631	0.00
6632	0.00
6633	-35.20
6634	-26.70
6635	-176.60
6636	-485.00
6637	-437.20
6638	-113.40
6639	0.00
6640	0.00
6641	0.00
6642	0.00
6643	0.00
6644	0.00
6645	0.00
6646	0.00
6647	0.00
6648	0.00
6649	0.00
6650	0.00
6651	0.00
6652	0.00
6653	0.00
6654	0.00
6655	0.00
6656	0.00
6657	0.00
6658	0.00
6659	0.00
6660	0.00
6661	16800.00
6662	16800.00
6663	16800.00
6664	0.00
6665	0.00
6666	0.00
6667	0.00
6668	0.00
6669	0.00
6670	0.00
6671	0.00
6672	0.00
6673	0.00
6674	0.00
6675	0.00
6676	0.00
6677	0.00
6678	0.00
6679	0.00
6680	0.00
6681	16800.00
6682	16800.00
6683	16800.00
6684	16800.00
6685	0.00
6686	0.00
6687	0.00
6688	0.00
6689	0.00
6690	0.00
6691	0.00
6692	0.00
6693	16800.00
6694	16800.00
6695	16800.00
6696	16800.00
6697	0.00
6698	0.00
6699	0.00
6700	0.00
6701	0.00
6702	0.00
6703	0.00
6704	0.00
6705	0.00
6706	0.00
6707	16800.00
6708	16800.00
6709	16800.00
6710	16800.00
6711	0.00
6712	0.00
6713	0.00
6714	0.00
6715	0.00
6716	0.00
6717	16800.00
6718	16800.00
6719	16800.00
6720	16800.00
6721	0.00
6722	0.00
6723	0.00
6724	0.00
6725	0.00
6726	0.00
6727	0.00
6728	0.00
6729	0.00
6730	0.00
6731	16800.00
6732	16800.00
6733	16800.00
6734	16800.00
6735	0.00
6736	0.00
6737	0.00
6738	0.00
6739	0.00
6740	0.00
6741	0.00
6742	0.00
6743	0.00
6744	0.00
6745	0.00
6746	0.00
6747	0.00
6748	0.00
6749	0.00
6750	0.00
6751	16800.00
6752	16800.00
6753	16800.00
6754	16800.00
6755	0.00
6756	0.00
6757	0.00
6758	0.00
6759	0.00
6760	0.00
6761	0.00
6762	0.00
6763	0.00
6764	0.00
6765	0.00
6766	0.00
6767	0.00
6768	0.00
6769	0.00
6770	0.00
6771	0.00
6772	0.00
6773	0.00
6774	16800.00
6775	16800.00
6776	16800.00
6777	16800.00
6778	16800.00
6779	0.00
6780	0.00
6781	0.00
6782	0.00
6783	0.00
6784	0.00
6785	0.00
6786	0.00
6787	0.00
6788	0.00
6789	16800.00
6790	16800.00
6791	16800.00
6792	16800.00
6793	0.00
6794	0.00
6795	0.00
6796	0.00
6797	0.00
6798	0.00
6799	0.00
6800	0.00
6801	0.00
6802	0.00
6803	0.00
6804	16800.00
6805	16800.00
6806	16800.00
6807	16800.00
6808	0.00
6809	0.00
6810	0.00
6811	0.00
6812	0.00
6813	0.00
6814	0.00
6815	0.00
6816	0.00
6817	0.00
6818	0.00
6819	0.00
6820	0.00
6821	0.00
6822	16800.00
6823	16800.00
6824	16800.00
6825	16800.00
6826	0.00
6827	0.00
6828	0.00
6829	0.00
6830	0.00
6831	0.00
6832	0.00
6833	0.00
6834	0.00
6835	16800.00
6836	16800.00
6837	16800.00
6838	16800.00
6839	0.00
6840	0.00
6841	0.00
6842	0.00
6843	0.00
6844	0.00
6845	0.00
6846	0.00
6847	0.00
6848	0.00
6849	0.00
6850	16800.00
6851	16800.00
6852	16800.00
6853	0.00
6854	0.00
6855	0.00
6856	0.00
6857	0.00
6858	0.00
6859	0.00
6860	0.00
6861	0.00
6862	0.00
6863	0.00
6864	0.00
6865	0.00
6866	0.00
6867	0.00
6868	0.00
6869	0.00
6870	16800.00
6871	16800.00
6872	16800.00
6873	16800.00
6874	16800.00
6875	0.00
6876	0.00
6877	0.00
6878	0.00
6879	0.00
6880	0.00
6881	0.00
6882	0.00
6883	0.00
6884	0.00
6885	0.00
6886	0.00
6887	0.00
6888	0.00
6889	0.00
6890	0.00
6891	0.00
6892	0.00
6893	0.00
6894	16800.00
6895	16800.00
6896	16800.00
6897	16800.00
6898	16800.00
6899	0.00
6900	0.00
6901	0.00
6902	0.00
6903	0.00
6904	0.00
6905	0.00
6906	0.00
6907	0.00
6908	0.00
6909	0.00
6910	0.00
6911	0.00
6912	0.00
6913	0.00
6914	0.00
6915	0.00
6916	0.00
6917	0.00
6918	0.00
6919	16800.00
6920	16800.00
6921	16800.00
6922	16800.00
6923	0.00
6924	0.00
6925	0.00
6926	0.00
6927	0.00
6928	0.00
6929	0.00
6930	0.00
6931	0.00
6932	0.00
6933	0.00
6934	0.00
6935	0.00
6936	0.00
6937	0.00
6938	0.00
6939	0.00
6940	0.00
6941	0.00
6942	0.00
6943	0.00
6944	16800.00
6945	16800.00
6946	16800.00
6947	0.00
6948	0.00
6949	0.00
6950	0.00
6951	0.00
6952	0.00
6953	0.00
6954	0.00
6955	0.00
6956	0.00
6957	0.00
6958	0.00
6959	0.00
6960	0.00
6961	0.00
6962	0.00
6963	0.00
6964	0.00
6965	0.00
6966	0.00
6967	16800.00
6968	16800.00
6969	16800.00
6970	16800.00
6971	0.00
6972	0.00
6973	0.00
6974	0.00
6975	0.00
6976	0.00
6977	0.00
6978	0.00
6979	0.00
6980	0.00
6981	0.00
6982	0.00
6983	0.00
6984	0.00
6985	0.00
6986	0.00
6987	0.00
6988	0.00
6989	0.00
6990	16800.00
6991	16800.00
6992	16800.00
6993	16800.00
6994	16800.00
6995	16800.00
6996	0.00
6997	0.00
6998	0.00
6999	0.00
7000	0.00
7001	0.00
7002	0.00
7003	0.00
7004	0.00
7005	0.00
7006	0.00
7007	0.00
7008	0.00
7009	16800.00
7010	16800.00
7011	16800.00
7012	0.00
7013	0.00
7014	0.00
7015	0.00
7016	0.00
7017	0.00
7018	16800.00
7019	16800.00
7020	16800.00
7021	16800.00
7022	0.00
7023	0.00
7024	0.00
7025	0.00
7026	0.00
7027	0.00
7028	0.00
7029	0.00
7030	16800.00
7031	16800.00
7032	16800.00
7033	0.00
7034	0.00
7035	0.00
7036	0.00
7037	0.00
7038	0.00
7039	0.00
7040	16800.00
7041	16800.00
7042	16800.00
7043	16800.00
7044	16800.00
7045	0.00
7046	0.00
7047	0.00
7048	0.00
7049	0.00
7050	0.00
7051	0.00
7052	0.00
7053	0.00
7054	0.00
7055	0.00
7056	0.00
7057	0.00
7058	0.00
7059	16800.00
7060	16800.00
7061	16800.00
7062	0.00
7063	0.00
7064	0.00
7065	0.00
7066	0.00
7067	0.00
7068	0.00
7069	16800.00
7070	16800.00
7071	16800.00
7072	16800.00
7073	0.00
7074	0.00
7075	0.00
7076	0.00
7077	0.00
7078	0.00
7079	0.00
7080	0.00
7081	0.00
7082	0.00
7083	0.00
7084	0.00
7085	0.00
7086	0.00
7087	16800.00
7088	16800.00
7089	16800.00
7090	16800.00
7091	0.00
7092	0.00
7093	0.00
7094	0.00
7095	0.00
7096	0.00
7097	0.00
7098	0.00
7099	0.00
7100	0.00
7101	0.00
7102	0.00
7103	0.00
7104	0.00
7105	0.00
7106	0.00
7107	0.00
7108	0.00
7109	0.00
7110	0.00
7111	16800.00
7112	16800.00
7113	16800.00
7114	16800.00
7115	0.00
7116	0.00
7117	0.00
7118	0.00
7119	0.00
7120	0.00
7121	0.00
7122	0.00
7123	0.00
7124	0.00
7125	0.00
7126	0.00
7127	0.00
7128	0.00
7129	0.00
7130	0.00
7131	0.00
7132	0.00
7133	0.00
7134	16800.00
7135	16800.00
7136	16800.00
7137	16800.00
7138	0.00
7139	0.00
7140	0.00
7141	0.00
7142	0.00
7143	0.00
7144	0.00
7145	0.00
7146	0.00
7147	0.00
7148	0.00
7149	0.00
7150	0.00
7151	0.00
7152	0.00
7153	16800.00
7154	16800.00
7155	16800.00
7156	0.00
7157	0.00
7158	0.00
7159	0.00
7160	0.00
7161	0.00
7162	0.00
7163	16800.00
7164	16800.00
7165	16800.00
7166	16800.00
7167	0.00
7168	0.00
7169	0.00
7170	0.00
7171	0.00
7172	0.00
7173	16800.00
7174	16800.00
7175	16800.00
7176	16800.00
7177	0.00
7178	0.00
7179	0.00
7180	0.00
7181	0.00
7182	0.00
7183	0.00
7184	16800.00
7185	16800.00
7186	16800.00
7187	16800.00
7188	0.00
7189	0.00
7190	0.00
7191	16800.00
7192	16800.00
7193	16800.00
7194	16800.00
7195	0.00
7196	0.00
7197	0.00
7198	0.00
7199	0.00
7200	0.00
7201	0.00
7202	0.00
7203	0.00
7204	0.00
7205	0.00
7206	16800.00
7207	16800.00
7208	16800.00
7209	16800.00
7210	16800.00
7211	0.00
7212	0.00
7213	0.00
7214	0.00
7215	0.00
7216	0.00
7217	0.00
7218	0.00
7219	0.00
7220	16800.00
7221	16800.00
7222	16800.00
7223	16800.00
7224	0.00
7225	0.00
7226	0.00
7227	0.00
7228	0.00
7229	0.00
7230	0.00
7231	0.00
7232	0.00
7233	0.00
7234	16800.00
7235	16800.00
7236	16800.00
7237	16800.00
7238	0.00
7239	0.00
7240	0.00
7241	0.00
7242	0.00
7243	0.00
7244	0.00
7245	0.00
7246	0.00
7247	16800.00
7248	16800.00
7249	16800.00
7250	0.00
7251	0.00
7252	0.00
7253	0.00
7254	0.00
7255	0.00
7256	16800.00
7257	16800.00
7258	16800.00
7259	16800.00
7260	16800.00
7261	0.00
7262	0.00
7263	0.00
7264	0.00
7265	16800.00
7266	16800.00
7267	16800.00
7268	16800.00
7269	16800.00
7270	16800.00
7271	0.00
7272	0.00
7273	0.00
7274	0.00
7275	0.00
7276	0.00
7277	0.00
7278	0.00
7279	16800.00
7280	16800.00
7281	16800.00
7282	16800.00
7283	16800.00
7284	0.00
7285	0.00
7286	0.00
7287	0.00
7288	0.00
7289	16800.00
7290	16800.00
7291	16800.00
7292	16800.00
7293	16800.00
7294	16800.00
7295	0.00
7296	0.00
7297	0.00
7298	0.00
7299	0.00
7300	0.00
7301	0.00
7302	0.00
7303	16800.00
7304	16800.00
7305	16800.00
7306	16800.00
7307	0.00
7308	0.00
7309	0.00
7310	0.00
7311	0.00
7312	16800.00
7313	16800.00
7314	16800.00
7315	16800.00
7316	16800.00
7317	0.00
7318	0.00
7319	0.00
7320	0.00
7321	0.00
7322	0.00
7323	0.00
7324	0.00
7325	0.00
7326	0.00
7327	16800.00
7328	16800.00
7329	16800.00
7330	16800.00
7331	16800.00
7332	0.00
7333	0.00
7334	0.00
7335	0.00
7336	0.00
7337	0.00
7338	0.00
7339	0.00
7340	16800.00
7341	16800.00
7342	16800.00
7343	16800.00
7344	0.00
7345	0.00
7346	0.00
7347	0.00
7348	0.00
7349	0.00
7350	0.00
7351	0.00
7352	16800.00
7353	16800.00
7354	16800.00
7355	16800.00
7356	16800.00
7357	0.00
7358	0.00
7359	0.00
7360	0.00
7361	0.00
7362	0.00
7363	0.00
7364	0.00
7365	0.00
7366	16800.00
7367	16800.00
7368	16800.00
7369	0.00
7370	0.00
7371	0.00
7372	0.00
7373	0.00
7374	0.00
7375	0.00
7376	0.00
7377	16800.00
7378	16800.00
7379	16800.00
7380	16800.00
7381	0.00
7382	0.00
7383	0.00
7384	0.00
7385	0.00
7386	0.00
7387	0.00
7388	0.00
7389	16800.00
7390	16800.00
7391	16800.00
7392	16800.00
7393	0.00
7394	0.00
7395	0.00
7396	0.00
7397	0.00
7398	0.00
7399	0.00
7400	0.00
7401	0.00
7402	16800.00
7403	16800.00
7404	16800.00
7405	16800.00
7406	0.00
7407	0.00
7408	0.00
7409	0.00
7410	0.00
7411	0.00
7412	0.00
7413	0.00
7414	0.00
7415	0.00
7416	16800.00
7417	16800.00
7418	16800.00
7419	0.00
7420	0.00
7421	0.00
7422	0.00
7423	0.00
7424	0.00
7425	16800.00
7426	16800.00
7427	16800.00
7428	16800.00
7429	0.00
7430	0.00
7431	0.00
7432	0.00
7433	0.00
7434	16800.00
7435	16800.00
7436	16800.00
7437	16800.00
7438	16800.00
7439	0.00
7440	0.00
7441	0.00
7442	0.00
7443	0.00
7444	0.00
7445	0.00
7446	0.00
7447	16800.00
7448	16800.00
7449	16800.00
7450	16800.00
7451	16800.00
7452	0.00
7453	0.00
7454	0.00
7455	0.00
7456	0.00
7457	16800.00
7458	16800.00
7459	16800.00
7460	16800.00
7461	16800.00
7462	0.00
7463	0.00
7464	0.00
7465	0.00
7466	0.00
7467	0.00
7468	0.00
7469	0.00
7470	0.00
7471	0.00
7472	16800.00
7473	16800.00
7474	16800.00
7475	16800.00
7476	16800.00
7477	0.00
7478	0.00
7479	0.00
7480	0.00
7481	0.00
7482	0.00
7483	0.00
7484	16800.00
7485	16800.00
7486	16800.00
7487	16800.00
7488	0.00
7489	0.00
7490	0.00
7491	0.00
7492	0.00
7493	0.00
7494	0.00
7495	0.00
7496	0.00
7497	16800.00
7498	16800.00
7499	16800.00
7500	16800.00
7501	16800.00
7502	0.00
7503	0.00
7504	0.00
7505	0.00
7506	0.00
7507	0.00
7508	0.00
7509	16800.00
7510	16800.00
7511	16800.00
7512	16800.00
7513	0.00
7514	0.00
7515	0.00
7516	0.00
7517	0.00
7518	0.00
7519	0.00
7520	0.00
7521	16800.00
7522	16800.00
7523	16800.00
7524	16800.00
7525	0.00
7526	0.00
7527	0.00
7528	0.00
7529	0.00
7530	0.00
7531	0.00
7532	16800.00
7533	16800.00
7534	16800.00
7535	16800.00
7536	0.00
7537	0.00
7538	0.00
7539	0.00
7540	0.00
7541	0.00
7542	0.00
7543	0.00
7544	16800.00
7545	16800.00
7546	16800.00
7547	16800.00
7548	16800.00
7549	0.00
7550	0.00
7551	0.00
7552	0.00
7553	0.00
7554	0.00
7555	0.00
7556	0.00
7557	0.00
7558	0.00
7559	16800.00
7560	16800.00
7561	16800.00
7562	0.00
7563	0.00
7564	0.00
7565	0.00
7566	0.00
7567	0.00
7568	0.00
7569	0.00
7570	16800.00
7571	16800.00
7572	16800.00
7573	16800.00
7574	0.00
7575	0.00
7576	0.00
7577	0.00
7578	0.00
7579	0.00
7580	0.00
7581	0.00
7582	0.00
7583	0.00
7584	16800.00
7585	16800.00
7586	16800.00
7587	0.00
7588	0.00
7589	0.00
7590	0.00
7591	0.00
7592	16800.00
7593	16800.00
7594	16800.00
7595	16800.00
7596	16800.00
7597	0.00
7598	0.00
7599	0.00
7600	0.00
7601	0.00
7602	0.00
7603	0.00
7604	16800.00
7605	16800.00
7606	16800.00
7607	16800.00
7608	16800.00
7609	0.00
7610	0.00
7611	0.00
7612	0.00
7613	0.00
7614	0.00
7615	0.00
7616	16800.00
7617	16800.00
7618	16800.00
7619	16800.00
7620	0.00
7621	0.00
7622	0.00
7623	16800.00
7624	16800.00
7625	16800.00
7626	16800.00
7627	16800.00
7628	0.00
7629	0.00
7630	0.00
7631	0.00
7632	0.00
7633	0.00
7634	0.00
7635	0.00
7636	0.00
7637	0.00
7638	16800.00
7639	16800.00
7640	16800.00
7641	16800.00
7642	16800.00
7643	16800.00
7644	16800.00
7645	0.00
7646	0.00
7647	0.00
7648	0.00
7649	0.00
7650	0.00
7651	16800.00
7652	16800.00
7653	16800.00
7654	16800.00
7655	16800.00
7656	0.00
7657	0.00
7658	0.00
7659	0.00
7660	0.00
7661	0.00
7662	0.00
7663	0.00
7664	0.00
7665	0.00
7666	0.00
7667	16800.00
7668	16800.00
7669	16800.00
7670	16800.00
7671	0.00
7672	0.00
7673	0.00
7674	0.00
7675	0.00
7676	0.00
7677	0.00
7678	0.00
7679	0.00
7680	0.00
7681	16800.00
7682	16800.00
7683	16800.00
7684	0.00
7685	0.00
7686	0.00
7687	0.00
7688	0.00
7689	16800.00
7690	16800.00
7691	16800.00
7692	16800.00
7693	0.00
7694	0.00
7695	0.00
7696	0.00
7697	0.00
7698	0.00
7699	0.00
7700	16800.00
7701	16800.00
7702	16800.00
7703	16800.00
7704	16800.00
7705	0.00
7706	0.00
7707	0.00
7708	0.00
7709	0.00
7710	0.00
7711	16800.00
7712	16800.00
7713	16800.00
7714	16800.00
7715	16800.00
7716	16800.00
7717	0.00
7718	0.00
7719	0.00
7720	16800.00
7721	16800.00
7722	16800.00
7723	16800.00
7724	16800.00
7725	16800.00
7726	0.00
7727	0.00
7728	0.00
7729	0.00
7730	0.00
7731	0.00
7732	0.00
7733	0.00
7734	16800.00
7735	16800.00
7736	16800.00
7737	16800.00
7738	16800.00
7739	0.00
7740	0.00
7741	16800.00
7742	16800.00
7743	16800.00
7744	16800.00
7745	0.00
7746	0.00
7747	16800.00
7748	16800.00
7749	16800.00
7750	16800.00
7751	16800.00
7752	0.00
7753	0.00
7754	0.00
7755	0.00
7756	0.00
7757	16800.00
7758	16800.00
7759	16800.00
7760	16800.00
7761	0.00
7762	0.00
7763	16800.00
7764	16800.00
7765	16800.00
7766	16800.00
7767	16800.00
7768	16800.00
7769	16800.00
7770	0.00
7771	0.00
7772	16800.00
7773	16800.00
7774	16800.00
7775	16800.00
7776	16800.00
7777	0.00
7778	0.00
7779	0.00
7780	0.00
7781	0.00
7782	0.00
7783	16800.00
7784	16800.00
7785	16800.00
7786	16800.00
7787	16800.00
7788	16800.00
7789	0.00
7790	0.00
7791	16800.00
7792	16800.00
7793	16800.00
7794	16800.00
7795	16800.00
7796	0.00
7797	0.00
7798	16800.00
7799	16800.00
7800	16800.00
7801	16800.00
7802	16800.00
7803	0.00
7804	0.00
7805	0.00
7806	16800.00
7807	16800.00
7808	16800.00
7809	16800.00
7810	16800.00
7811	0.00
7812	0.00
7813	16800.00
7814	16800.00
7815	16800.00
7816	16800.00
7817	0.00
7818	0.00
7819	16800.00
7820	16800.00
7821	16800.00
7822	16800.00
7823	16800.00
7824	16800.00
7825	0.00
7826	0.00
7827	16800.00
7828	16800.00
7829	16800.00
7830	16800.00
7831	16800.00
7832	16800.00
7833	16800.00
7834	0.00
7835	0.00
7836	16800.00
7837	16800.00
7838	16800.00
7839	16800.00
7840	16800.00
7841	0.00
7842	0.00
7843	16800.00
7844	16800.00
7845	16800.00
7846	16800.00
7847	0.00
7848	0.00
7849	16800.00
7850	16800.00
7851	16800.00
7852	16800.00
7853	16800.00
7854	16800.00
7855	16800.00
7856	0.00
7857	0.00
7858	0.00
7859	0.00
7860	16800.00
7861	16800.00
7862	16800.00
7863	16800.00
7864	0.00
7865	0.00
7866	0.00
7867	0.00
7868	16800.00
7869	16800.00
7870	16800.00
7871	16800.00
7872	16800.00
7873	0.00
7874	0.00
7875	0.00
7876	0.00
7877	0.00
7878	0.00
7879	0.00
7880	16800.00
7881	16800.00
7882	16800.00
7883	16800.00
7884	16800.00
7885	0.00
7886	0.00
7887	0.00
7888	0.00
7889	16800.00
7890	16800.00
7891	16800.00
7892	16800.00
7893	16800.00
7894	16800.00
7895	0.00
7896	0.00
7897	0.00
7898	0.00
7899	0.00
7900	0.00
7901	0.00
7902	0.00
7903	16800.00
7904	16800.00
7905	16800.00
7906	16800.00
7907	16800.00
7908	16800.00
7909	16800.00
7910	0.00
7911	0.00
7912	0.00
7913	16800.00
7914	16800.00
7915	16800.00
7916	16800.00
7917	0.00
7918	0.00
7919	16800.00
7920	16800.00
7921	16800.00
7922	16800.00
7923	0.00
7924	0.00
7925	0.00
7926	0.00
7927	0.00
7928	16800.00
7929	16800.00
7930	16800.00
7931	16800.00
7932	16800.00
7933	16800.00
7934	0.00
7935	0.00
7936	16800.00
7937	16800.00
7938	16800.00
7939	16800.00
7940	16800.00
7941	16800.00
7942	0.00
7943	0.00
7944	16800.00
7945	16800.00
7946	16800.00
7947	16800.00
7948	0.00
7949	0.00
7950	0.00
7951	16800.00
7952	16800.00
7953	16800.00
7954	16800.00
7955	0.00
7956	0.00
7957	16800.00
7958	16800.00
7959	16800.00
7960	16800.00
7961	16800.00
7962	16800.00
7963	0.00
7964	0.00
7965	16800.00
7966	16800.00
7967	16800.00
7968	16800.00
7969	16800.00
7970	16800.00
7971	0.00
7972	0.00
7973	16800.00
7974	16800.00
7975	16800.00
7976	16800.00
7977	0.00
7978	0.00
7979	16800.00
7980	16800.00
7981	16800.00
7982	16800.00
7983	16800.00
7984	0.00
7985	0.00
7986	16800.00
7987	16800.00
7988	16800.00
7989	16800.00
7990	0.00
7991	0.00
7992	16800.00
7993	16800.00
7994	16800.00
7995	16800.00
7996	16800.00
7997	0.00
7998	0.00
7999	16800.00
8000	16800.00
8001	16800.00
8002	16800.00
8003	16800.00
8004	0.00
8005	0.00
8006	16800.00
8007	16800.00
8008	16800.00
8009	16800.00
8010	0.00
8011	0.00
8012	16800.00
8013	16800.00
8014	16800.00
8015	16800.00
8016	16800.00
8017	16800.00
8018	16800.00
8019	0.00
8020	0.00
8021	16800.00
8022	16800.00
8023	16800.00
8024	16800.00
8025	16800.00
8026	0.00
8027	0.00
8028	16800.00
8029	16800.00
8030	16800.00
8031	16800.00
8032	16800.00
8033	0.00
8034	0.00
8035	0.00
8036	16800.00
8037	16800.00
8038	16800.00
8039	16800.00
8040	0.00
8041	0.00
8042	0.00
8043	0.00
8044	0.00
8045	0.00
8046	0.00
8047	16800.00
8048	16800.00
8049	16800.00
8050	16800.00
8051	16800.00
8052	16800.00
8053	16800.00
8054	0.00
8055	0.00
8056	0.00
8057	0.00
8058	0.00
8059	16800.00
8060	16800.00
8061	16800.00
8062	16800.00
8063	0.00
8064	0.00
8065	0.00
8066	0.00
8067	0.00
8068	0.00
8069	0.00
8070	0.00
8071	16800.00
8072	16800.00
8073	16800.00
8074	16800.00
8075	16800.00
8076	16800.00
8077	0.00
8078	0.00
8079	0.00
8080	0.00
8081	0.00
8082	16800.00
8083	16800.00
8084	16800.00
8085	16800.00
8086	16800.00
8087	16800.00
8088	0.00
8089	0.00
8090	0.00
8091	0.00
8092	0.00
8093	0.00
8094	0.00
8095	0.00
8096	16800.00
8097	16800.00
8098	16800.00
8099	16800.00
8100	0.00
8101	0.00
8102	0.00
8103	0.00
8104	0.00
8105	16800.00
8106	16800.00
8107	16800.00
8108	16800.00
8109	16800.00
8110	0.00
8111	0.00
8112	0.00
8113	0.00
8114	0.00
8115	0.00
8116	0.00
8117	0.00
8118	0.00
8119	16800.00
8120	16800.00
8121	16800.00
8122	16800.00
8123	16800.00
8124	16800.00
8125	0.00
8126	0.00
8127	0.00
8128	0.00
8129	16800.00
8130	16800.00
8131	16800.00
8132	16800.00
8133	0.00
8134	0.00
8135	0.00
8136	0.00
8137	0.00
8138	0.00
8139	0.00
8140	0.00
8141	0.00
8142	16800.00
8143	16800.00
8144	16800.00
8145	16800.00
8146	16800.00
8147	0.00
8148	0.00
8149	0.00
8150	0.00
8151	0.00
8152	0.00
8153	16800.00
8154	16800.00
8155	16800.00
8156	16800.00
8157	0.00
8158	0.00
8159	0.00
8160	0.00
8161	0.00
8162	0.00
8163	0.00
8164	0.00
8165	0.00
8166	16800.00
8167	16800.00
8168	16800.00
8169	16800.00
8170	16800.00
8171	0.00
8172	0.00
8173	0.00
8174	0.00
8175	0.00
8176	0.00
8177	0.00
8178	0.00
8179	16800.00
8180	16800.00
8181	16800.00
8182	16800.00
8183	16800.00
8184	0.00
8185	0.00
8186	0.00
8187	0.00
8188	0.00
8189	0.00
8190	0.00
8191	0.00
8192	16800.00
8193	16800.00
8194	16800.00
8195	16800.00
8196	0.00
8197	0.00
8198	0.00
8199	0.00
8200	0.00
8201	16800.00
8202	16800.00
8203	16800.00
8204	16800.00
8205	16800.00
8206	0.00
8207	0.00
8208	0.00
8209	0.00
8210	0.00
8211	0.00
8212	0.00
8213	0.00
8214	16800.00
8215	16800.00
8216	16800.00
8217	16800.00
8218	16800.00
8219	16800.00
8220	16800.00
8221	0.00
8222	0.00
8223	16800.00
8224	16800.00
8225	16800.00
8226	16800.00
8227	16800.00
8228	0.00
8229	0.00
8230	16800.00
8231	16800.00
8232	16800.00
8233	16800.00
8234	16800.00
8235	16800.00
8236	0.00
8237	0.00
8238	0.00
8239	16800.00
8240	16800.00
8241	16800.00
8242	16800.00
8243	16800.00
8244	16800.00
8245	0.00
8246	0.00
8247	16800.00
8248	16800.00
8249	16800.00
8250	16800.00
8251	16800.00
8252	0.00
8253	0.00
8254	16800.00
8255	16800.00
8256	16800.00
8257	16800.00
8258	0.00
8259	0.00
8260	0.00
8261	0.00
8262	0.00
8263	16800.00
8264	16800.00
8265	16800.00
8266	16800.00
8267	16800.00
8268	16800.00
8269	0.00
8270	0.00
8271	16800.00
8272	16800.00
8273	16800.00
8274	16800.00
8275	0.00
8276	0.00
8277	16800.00
8278	16800.00
8279	16800.00
8280	16800.00
8281	16800.00
8282	16800.00
8283	0.00
8284	0.00
8285	0.00
8286	0.00
8287	0.00
8288	16800.00
8289	16800.00
8290	16800.00
8291	16800.00
8292	16800.00
8293	0.00
8294	0.00
8295	16800.00
8296	16800.00
8297	16800.00
8298	16800.00
8299	16800.00
8300	0.00
8301	0.00
8302	16800.00
8303	16800.00
8304	16800.00
8305	16800.00
8306	16800.00
8307	0.00
8308	0.00
8309	0.00
8310	16800.00
8311	16800.00
8312	16800.00
8313	16800.00
8314	16800.00
8315	0.00
8316	0.00
8317	16800.00
8318	16800.00
8319	16800.00
8320	16800.00
8321	0.00
8322	0.00
8323	16800.00
8324	16800.00
8325	16800.00
8326	16800.00
8327	16800.00
8328	16800.00
8329	0.00
8330	0.00
8331	16800.00
8332	16800.00
8333	16800.00
8334	16800.00
8335	16800.00
8336	0.00
8337	0.00
8338	16800.00
8339	16800.00
8340	16800.00
8341	16800.00
8342	0.00
8343	0.00
8344	16800.00
8345	16800.00
8346	16800.00
8347	16800.00
8348	0.00
8349	0.00
8350	16800.00
8351	16800.00
8352	16800.00
8353	16800.00
8354	0.00
8355	0.00
8356	16800.00
8357	16800.00
8358	16800.00
8359	16800.00
8360	16800.00
8361	0.00
8362	0.00
8363	16800.00
8364	16800.00
8365	16800.00
8366	16800.00
8367	0.00
8368	0.00
8369	16800.00
8370	16800.00
8371	16800.00
8372	16800.00
8373	16800.00
8374	16800.00
8375	0.00
8376	0.00
8377	16800.00
8378	16800.00
8379	16800.00
8380	16800.00
8381	16800.00
8382	0.00
8383	0.00
8384	16800.00
8385	16800.00
8386	16800.00
8387	16800.00
8388	16800.00
8389	0.00
8390	0.00
8391	16800.00
8392	16800.00
8393	16800.00
8394	16800.00
8395	16800.00
8396	0.00
8397	0.00
8398	16800.00
8399	16800.00
8400	16800.00
8401	16800.00
8402	0.00
8403	0.00
8404	16800.00
8405	16800.00
8406	16800.00
8407	16800.00
8408	0.00
8409	0.00
8410	16800.00
8411	16800.00
8412	16800.00
8413	16800.00
8414	16800.00
8415	16800.00
8416	0.00
8417	0.00
8418	16800.00
8419	16800.00
8420	16800.00
8421	16800.00
8422	16800.00
8423	16800.00
8424	0.00
8425	0.00
8426	16800.00
8427	16800.00
8428	16800.00
8429	16800.00
8430	16800.00
8431	0.00
8432	0.00
8433	16800.00
8434	16800.00
8435	16800.00
8436	16800.00
8437	0.00
8438	0.00
8439	16800.00
8440	16800.00
8441	16800.00
8442	16800.00
8443	16800.00
8444	16800.00
8445	16800.00
8446	0.00
8447	0.00
8448	16800.00
8449	16800.00
8450	16800.00
8451	16800.00
8452	0.00
8453	0.00
8454	16800.00
8455	16800.00
8456	16800.00
8457	16800.00
8458	0.00
8459	0.00
8460	16800.00
8461	16800.00
8462	16800.00
8463	16800.00
8464	16800.00
8465	16800.00
8466	0.00
8467	0.00
8468	16800.00
8469	16800.00
8470	16800.00
8471	16800.00
8472	0.00
8473	0.00
8474	16800.00
8475	16800.00
8476	16800.00
8477	16800.00
8478	16800.00
8479	16800.00
8480	16800.00
8481	0.00
8482	0.00
8483	16800.00
8484	16800.00
8485	16800.00
8486	16800.00
8487	16800.00
8488	16800.00
8489	0.00
8490	0.00
8491	16800.00
8492	16800.00
8493	16800.00
8494	16800.00
8495	16800.00
8496	16800.00
8497	0.00
8498	0.00
8499	16800.00
8500	16800.00
8501	16800.00
8502	16800.00
8503	0.00
8504	0.00
8505	16800.00
8506	16800.00
8507	16800.00
8508	16800.00
8509	16800.00
8510	0.00
8511	0.00
8512	16800.00
8513	16800.00
8514	16800.00
8515	16800.00
8516	16800.00
8517	16800.00
8518	0.00
8519	0.00
8520	16800.00
8521	16800.00
8522	16800.00
8523	16800.00
8524	0.00
8525	0.00
8526	16800.00
8527	16800.00
8528	16800.00
8529	16800.00
8530	16800.00
8531	16800.00
8532	0.00
8533	0.00
8534	16800.00
8535	16800.00
8536	16800.00
8537	16800.00
8538	16800.00
8539	0.00
8540	0.00
8541	16800.00
8542	16800.00
8543	16800.00
8544	16800.00
8545	0.00
8546	0.00
8547	16800.00
8548	16800.00
8549	16800.00
8550	16800.00
8551	0.00
8552	0.00
8553	16800.00
8554	16800.00
8555	16800.00
8556	16800.00
8557	16800.00
8558	0.00
8559	0.00
8560	16800.00
8561	16800.00
8562	16800.00
8563	16800.00
8564	0.00
8565	0.00
8566	16800.00
8567	16800.00
8568	16800.00
8569	16800.00
8570	16800.00
8571	0.00
8572	0.00
8573	0.00
8574	16800.00
8575	16800.00
8576	16800.00
8577	16800.00
8578	16800.00
8579	0.00
8580	0.00
8581	16800.00
8582	16800.00
8583	16800.00
8584	16800.00
8585	0.00
8586	0.00
8587	16800.00
8588	16800.00
8589	16800.00
8590	16800.00
8591	16800.00
8592	16800.00
8593	0.00
8594	0.00
8595	16800.00
8596	16800.00
8597	16800.00
8598	16800.00
8599	0.00
8600	0.00
8601	16800.00
8602	16800.00
8603	16800.00
8604	16800.00
8605	16800.00
8606	16800.00
8607	16800.00
8608	0.00
8609	0.00
8610	16800.00
8611	16800.00
8612	16800.00
8613	16800.00
8614	16800.00
8615	0.00
8616	0.00
8617	0.00
8618	0.00
8619	0.00
8620	0.00
8621	0.00
8622	16800.00
8623	16800.00
8624	16800.00
8625	16800.00
8626	16800.00
8627	0.00
8628	0.00
8629	16800.00
8630	16800.00
8631	16800.00
8632	16800.00
8633	16800.00
8634	16800.00
8635	0.00
8636	0.00
8637	16800.00
8638	16800.00
8639	16800.00
8640	16800.00
8641	16800.00
8642	0.00
8643	0.00
8644	16800.00
8645	16800.00
8646	16800.00
8647	16800.00
8648	16800.00
8649	16800.00
8650	0.00
8651	0.00
8652	16800.00
8653	16800.00
8654	16800.00
8655	16800.00
8656	16800.00
8657	16800.00
8658	0.00
8659	0.00
8660	16800.00
8661	16800.00
8662	16800.00
8663	16800.00
8664	16800.00
8665	0.00
8666	0.00
8667	16800.00
8668	16800.00
8669	16800.00
8670	16800.00
8671	16800.00
8672	16800.00
8673	0.00
8674	0.00
8675	16800.00
8676	16800.00
8677	16800.00
8678	16800.00
8679	16800.00
8680	0.00
8681	0.00
8682	16800.00
8683	16800.00
8684	16800.00
8685	16800.00
8686	16800.00
8687	0.00
8688	0.00
8689	0.00
8690	0.00
8691	0.00
8692	0.00
8693	0.00
8694	16800.00
8695	16800.00
8696	16800.00
8697	16800.00
8698	16800.00
8699	16800.00
8700	16800.00
8701	0.00
8702	0.00
8703	16800.00
8704	16800.00
8705	16800.00
8706	16800.00
8707	16800.00
8708	16800.00
8709	16800.00
8710	0.00
8711	0.00
8712	0.00
8713	16800.00
8714	16800.00
8715	16800.00
8716	0.00
8717	0.00
8718	0.00
8719	16800.00
8720	16800.00
8721	16800.00
8722	16800.00
8723	16800.00
8724	16800.00
8725	16800.00
8726	0.00
8727	0.00
8728	16800.00
8729	16800.00
8730	16800.00
8731	16800.00
8732	16800.00
8733	0.00
8734	0.00
8735	16800.00
8736	16800.00
8737	16800.00
8738	16800.00
8739	0.00
8740	0.00
8741	0.00
8742	0.00
8743	16800.00
8744	16800.00
8745	16800.00
8746	16800.00
8747	16800.00
8748	16800.00
8749	0.00
8750	0.00
8751	16800.00
8752	16800.00
8753	16800.00
8754	16800.00
8755	16800.00
8756	16800.00
8757	0.00
8758	0.00
8760	16800.00
