time [h]	Qevap [W]
0	16800.00
1	16800.00
2	16800.00
3	0.00
4	0.00
5	0.00
6	0.00
7	16800.00
8	16800.00
9	16800.00
10	16800.00
11	16800.00
12	0.00
13	0.00
14	16800.00
15	16800.00
16	16800.00
17	16800.00
18	16800.00
19	0.00
20	0.00
21	16800.00
22	16800.00
23	16800.00
24	16800.00
25	16800.00
26	16800.00
27	0.00
28	0.00
29	16800.00
30	16800.00
31	16800.00
32	16800.00
33	16800.00
34	16800.00
35	0.00
36	0.00
37	16800.00
38	16800.00
39	16800.00
40	16800.00
41	16800.00
42	16800.00
43	0.00
44	0.00
45	16800.00
46	16800.00
47	16800.00
48	16800.00
49	16800.00
50	0.00
51	0.00
52	0.00
53	0.00
54	0.00
55	0.00
56	16800.00
57	16800.00
58	16800.00
59	16800.00
60	0.00
61	0.00
62	0.00
63	16800.00
64	16800.00
65	16800.00
66	16800.00
67	16800.00
68	16800.00
69	0.00
70	0.00
71	0.00
72	0.00
73	0.00
74	0.00
75	0.00
76	0.00
77	0.00
78	16800.00
79	16800.00
80	16800.00
81	16800.00
82	16800.00
83	16800.00
84	0.00
85	0.00
86	16800.00
87	16800.00
88	16800.00
89	16800.00
90	16800.00
91	0.00
92	0.00
93	0.00
94	16800.00
95	16800.00
96	16800.00
97	16800.00
98	0.00
99	0.00
100	0.00
101	0.00
102	0.00
103	0.00
104	16800.00
105	16800.00
106	16800.00
107	16800.00
108	16800.00
109	16800.00
110	0.00
111	0.00
112	0.00
113	16800.00
114	16800.00
115	16800.00
116	16800.00
117	16800.00
118	0.00
119	0.00
120	0.00
121	0.00
122	0.00
123	0.00
124	0.00
125	0.00
126	0.00
127	16800.00
128	16800.00
129	16800.00
130	16800.00
131	16800.00
132	0.00
133	0.00
134	0.00
135	0.00
136	0.00
137	0.00
138	0.00
139	16800.00
140	16800.00
141	16800.00
142	16800.00
143	16800.00
144	0.00
145	0.00
146	0.00
147	0.00
148	0.00
149	0.00
150	0.00
151	0.00
152	16800.00
153	16800.00
154	16800.00
155	16800.00
156	0.00
157	0.00
158	0.00
159	0.00
160	0.00
161	0.00
162	16800.00
163	16800.00
164	16800.00
165	16800.00
166	16800.00
167	0.00
168	0.00
169	0.00
170	0.00
171	0.00
172	0.00
173	0.00
174	0.00
175	16800.00
176	16800.00
177	16800.00
178	16800.00
179	16800.00
180	16800.00
181	0.00
182	0.00
183	0.00
184	0.00
185	16800.00
186	16800.00
187	16800.00
188	16800.00
189	16800.00
190	16800.00
191	0.00
192	0.00
193	0.00
194	0.00
195	0.00
196	0.00
197	0.00
198	16800.00
199	16800.00
200	16800.00
201	16800.00
202	16800.00
203	16800.00
204	16800.00
205	0.00
206	0.00
207	0.00
208	16800.00
209	16800.00
210	16800.00
211	16800.00
212	16800.00
213	0.00
214	0.00
215	16800.00
216	16800.00
217	16800.00
218	0.00
219	0.00
220	0.00
221	0.00
222	0.00
223	16800.00
224	16800.00
225	16800.00
226	16800.00
227	16800.00
228	0.00
229	0.00
230	16800.00
231	16800.00
232	16800.00
233	16800.00
234	16800.00
235	0.00
236	0.00
237	16800.00
238	16800.00
239	16800.00
240	16800.00
241	16800.00
242	0.00
243	0.00
244	0.00
245	0.00
246	0.00
247	16800.00
248	16800.00
249	16800.00
250	16800.00
251	16800.00
252	0.00
253	0.00
254	16800.00
255	16800.00
256	16800.00
257	16800.00
258	16800.00
259	16800.00
260	0.00
261	0.00
262	16800.00
263	16800.00
264	16800.00
265	16800.00
266	16800.00
267	0.00
268	0.00
269	0.00
270	16800.00
271	16800.00
272	16800.00
273	16800.00
274	16800.00
275	0.00
276	0.00
277	16800.00
278	16800.00
279	16800.00
280	16800.00
281	16800.00
282	0.00
283	0.00
284	16800.00
285	16800.00
286	16800.00
287	16800.00
288	16800.00
289	16800.00
290	0.00
291	0.00
292	16800.00
293	16800.00
294	16800.00
295	16800.00
296	16800.00
297	0.00
298	0.00
299	16800.00
300	16800.00
301	16800.00
302	16800.00
303	16800.00
304	16800.00
305	16800.00
306	0.00
307	0.00
308	16800.00
309	16800.00
310	16800.00
311	16800.00
312	16800.00
313	0.00
314	0.00
315	16800.00
316	16800.00
317	16800.00
318	16800.00
319	16800.00
320	16800.00
321	0.00
322	0.00
323	16800.00
324	16800.00
325	16800.00
326	16800.00
327	16800.00
328	0.00
329	0.00
330	16800.00
331	16800.00
332	16800.00
333	16800.00
334	16800.00
335	16800.00
336	0.00
337	0.00
338	16800.00
339	16800.00
340	16800.00
341	16800.00
342	16800.00
343	16800.00
344	0.00
345	0.00
346	16800.00
347	16800.00
348	16800.00
349	16800.00
350	0.00
351	0.00
352	16800.00
353	16800.00
354	16800.00
355	16800.00
356	16800.00
357	16800.00
358	0.00
359	0.00
360	16800.00
361	16800.00
362	16800.00
363	16800.00
364	16800.00
365	16800.00
366	0.00
367	0.00
368	16800.00
369	16800.00
370	16800.00
371	16800.00
372	16800.00
373	16800.00
374	16800.00
375	0.00
376	0.00
377	16800.00
378	16800.00
379	16800.00
380	16800.00
381	0.00
382	0.00
383	16800.00
384	16800.00
385	16800.00
386	16800.00
387	16800.00
388	0.00
389	0.00
390	0.00
391	16800.00
392	16800.00
393	16800.00
394	16800.00
395	16800.00
396	0.00
397	0.00
398	16800.00
399	16800.00
400	16800.00
401	16800.00
402	16800.00
403	0.00
404	0.00
405	0.00
406	0.00
407	16800.00
408	16800.00
409	16800.00
410	0.00
411	0.00
412	0.00
413	0.00
414	0.00
415	0.00
416	16800.00
417	16800.00
418	16800.00
419	16800.00
420	16800.00
421	16800.00
422	0.00
423	0.00
424	0.00
425	0.00
426	16800.00
427	16800.00
428	16800.00
429	16800.00
430	16800.00
431	16800.00
432	0.00
433	0.00
434	0.00
435	0.00
436	0.00
437	0.00
438	0.00
439	16800.00
440	16800.00
441	16800.00
442	16800.00
443	16800.00
444	16800.00
445	0.00
446	0.00
447	0.00
448	16800.00
449	16800.00
450	16800.00
451	16800.00
452	16800.00
453	16800.00
454	16800.00
455	0.00
456	0.00
457	0.00
458	0.00
459	0.00
460	0.00
461	0.00
462	0.00
463	16800.00
464	16800.00
465	16800.00
466	16800.00
467	0.00
468	0.00
469	16800.00
470	16800.00
471	16800.00
472	16800.00
473	16800.00
474	0.00
475	0.00
476	16800.00
477	16800.00
478	16800.00
479	16800.00
480	16800.00
481	0.00
482	0.00
483	0.00
484	0.00
485	0.00
486	0.00
487	16800.00
488	16800.00
489	16800.00
490	16800.00
491	16800.00
492	16800.00
493	0.00
494	0.00
495	0.00
496	16800.00
497	16800.00
498	16800.00
499	16800.00
500	0.00
501	0.00
502	16800.00
503	16800.00
504	16800.00
505	16800.00
506	0.00
507	0.00
508	0.00
509	0.00
510	0.00
511	0.00
512	16800.00
513	16800.00
514	16800.00
515	16800.00
516	16800.00
517	0.00
518	0.00
519	16800.00
520	16800.00
521	16800.00
522	16800.00
523	16800.00
524	0.00
525	0.00
526	16800.00
527	16800.00
528	16800.00
529	16800.00
530	16800.00
531	0.00
532	0.00
533	0.00
534	0.00
535	16800.00
536	16800.00
537	16800.00
538	16800.00
539	16800.00
540	0.00
541	0.00
542	16800.00
543	16800.00
544	16800.00
545	16800.00
546	16800.00
547	16800.00
548	0.00
549	0.00
550	16800.00
551	16800.00
552	16800.00
553	16800.00
554	16800.00
555	0.00
556	0.00
557	0.00
558	16800.00
559	16800.00
560	16800.00
561	16800.00
562	16800.00
563	16800.00
564	0.00
565	0.00
566	16800.00
567	16800.00
568	16800.00
569	16800.00
570	16800.00
571	16800.00
572	0.00
573	0.00
574	16800.00
575	16800.00
576	16800.00
577	16800.00
578	16800.00
579	16800.00
580	0.00
581	0.00
582	16800.00
583	16800.00
584	16800.00
585	16800.00
586	0.00
587	0.00
588	16800.00
589	16800.00
590	16800.00
591	16800.00
592	16800.00
593	16800.00
594	0.00
595	0.00
596	16800.00
597	16800.00
598	16800.00
599	16800.00
600	16800.00
601	16800.00
602	0.00
603	0.00
604	16800.00
605	16800.00
606	16800.00
607	16800.00
608	16800.00
609	16800.00
610	0.00
611	0.00
612	16800.00
613	16800.00
614	16800.00
615	16800.00
616	16800.00
617	16800.00
618	0.00
619	0.00
620	16800.00
621	16800.00
622	16800.00
623	16800.00
624	16800.00
625	0.00
626	0.00
627	16800.00
628	16800.00
629	16800.00
630	16800.00
631	0.00
632	0.00
633	16800.00
634	16800.00
635	16800.00
636	16800.00
637	16800.00
638	16800.00
639	0.00
640	0.00
641	16800.00
642	16800.00
643	16800.00
644	16800.00
645	16800.00
646	16800.00
647	0.00
648	0.00
649	16800.00
650	16800.00
651	16800.00
652	16800.00
653	0.00
654	0.00
655	16800.00
656	16800.00
657	16800.00
658	16800.00
659	16800.00
660	0.00
661	0.00
662	16800.00
663	16800.00
664	16800.00
665	16800.00
666	0.00
667	0.00
668	16800.00
669	16800.00
670	16800.00
671	16800.00
672	16800.00
673	0.00
674	0.00
675	16800.00
676	16800.00
677	16800.00
678	16800.00
679	16800.00
680	16800.00
681	16800.00
682	0.00
683	0.00
684	16800.00
685	16800.00
686	16800.00
687	16800.00
688	16800.00
689	16800.00
690	16800.00
691	0.00
692	0.00
693	16800.00
694	16800.00
695	16800.00
696	16800.00
697	0.00
698	0.00
699	16800.00
700	16800.00
701	16800.00
702	16800.00
703	16800.00
704	0.00
705	0.00
706	16800.00
707	16800.00
708	16800.00
709	16800.00
710	16800.00
711	0.00
712	0.00
713	16800.00
714	16800.00
715	16800.00
716	16800.00
717	16800.00
718	0.00
719	0.00
720	16800.00
721	16800.00
722	16800.00
723	16800.00
724	16800.00
725	0.00
726	0.00
727	16800.00
728	16800.00
729	16800.00
730	16800.00
731	16800.00
732	16800.00
733	0.00
734	0.00
735	16800.00
736	16800.00
737	16800.00
738	16800.00
739	16800.00
740	16800.00
741	0.00
742	0.00
743	16800.00
744	16800.00
745	16800.00
746	0.00
747	0.00
748	0.00
749	0.00
750	0.00
751	16800.00
752	16800.00
753	16800.00
754	16800.00
755	16800.00
756	0.00
757	0.00
758	0.00
759	0.00
760	16800.00
761	16800.00
762	16800.00
763	16800.00
764	0.00
765	0.00
766	0.00
767	16800.00
768	16800.00
769	16800.00
770	0.00
771	0.00
772	0.00
773	0.00
774	0.00
775	0.00
776	16800.00
777	16800.00
778	16800.00
779	16800.00
780	16800.00
781	0.00
782	0.00
783	0.00
784	16800.00
785	16800.00
786	16800.00
787	16800.00
788	0.00
789	0.00
790	0.00
791	16800.00
792	16800.00
793	16800.00
794	16800.00
795	0.00
796	0.00
797	0.00
798	0.00
799	0.00
800	16800.00
801	16800.00
802	16800.00
803	16800.00
804	16800.00
805	0.00
806	0.00
807	0.00
808	0.00
809	0.00
810	16800.00
811	16800.00
812	16800.00
813	16800.00
814	16800.00
815	16800.00
816	0.00
817	0.00
818	0.00
819	0.00
820	0.00
821	0.00
822	0.00
823	0.00
824	16800.00
825	16800.00
826	16800.00
827	16800.00
828	16800.00
829	0.00
830	0.00
831	0.00
832	16800.00
833	16800.00
834	16800.00
835	16800.00
836	0.00
837	0.00
838	0.00
839	16800.00
840	16800.00
841	16800.00
842	0.00
843	0.00
844	0.00
845	0.00
846	0.00
847	16800.00
848	16800.00
849	16800.00
850	16800.00
851	16800.00
852	16800.00
853	0.00
854	0.00
855	0.00
856	16800.00
857	16800.00
858	16800.00
859	16800.00
860	16800.00
861	16800.00
862	0.00
863	0.00
864	0.00
865	0.00
866	0.00
867	0.00
868	0.00
869	0.00
870	16800.00
871	16800.00
872	16800.00
873	16800.00
874	0.00
875	0.00
876	16800.00
877	16800.00
878	16800.00
879	16800.00
880	16800.00
881	0.00
882	0.00
883	16800.00
884	16800.00
885	16800.00
886	16800.00
887	16800.00
888	0.00
889	0.00
890	0.00
891	0.00
892	0.00
893	0.00
894	16800.00
895	16800.00
896	16800.00
897	16800.00
898	16800.00
899	0.00
900	0.00
901	16800.00
902	16800.00
903	16800.00
904	16800.00
905	0.00
906	0.00
907	16800.00
908	16800.00
909	16800.00
910	16800.00
911	16800.00
912	16800.00
913	0.00
914	0.00
915	0.00
916	0.00
917	0.00
918	0.00
919	16800.00
920	16800.00
921	16800.00
922	16800.00
923	16800.00
924	0.00
925	0.00
926	16800.00
927	16800.00
928	16800.00
929	16800.00
930	16800.00
931	16800.00
932	0.00
933	0.00
934	16800.00
935	16800.00
936	16800.00
937	16800.00
938	16800.00
939	0.00
940	0.00
941	0.00
942	0.00
943	16800.00
944	16800.00
945	16800.00
946	16800.00
947	0.00
948	0.00
949	16800.00
950	16800.00
951	16800.00
952	16800.00
953	16800.00
954	0.00
955	0.00
956	16800.00
957	16800.00
958	16800.00
959	16800.00
960	16800.00
961	0.00
962	0.00
963	16800.00
964	16800.00
965	16800.00
966	16800.00
967	16800.00
968	0.00
969	0.00
970	16800.00
971	16800.00
972	16800.00
973	16800.00
974	0.00
975	0.00
976	16800.00
977	16800.00
978	16800.00
979	16800.00
980	16800.00
981	16800.00
982	0.00
983	0.00
984	16800.00
985	16800.00
986	16800.00
987	0.00
988	0.00
989	0.00
990	0.00
991	0.00
992	16800.00
993	16800.00
994	16800.00
995	16800.00
996	16800.00
997	0.00
998	0.00
999	0.00
1000	16800.00
1001	16800.00
1002	16800.00
1003	16800.00
1004	0.00
1005	0.00
1006	0.00
1007	16800.00
1008	16800.00
1009	16800.00
1010	0.00
1011	0.00
1012	0.00
1013	0.00
1014	0.00
1015	0.00
1016	16800.00
1017	16800.00
1018	16800.00
1019	16800.00
1020	16800.00
1021	16800.00
1022	0.00
1023	0.00
1024	0.00
1025	0.00
1026	0.00
1027	16800.00
1028	16800.00
1029	16800.00
1030	16800.00
1031	16800.00
1032	0.00
1033	0.00
1034	0.00
1035	0.00
1036	0.00
1037	0.00
1038	0.00
1039	0.00
1040	16800.00
1041	16800.00
1042	16800.00
1043	16800.00
1044	16800.00
1045	0.00
1046	0.00
1047	0.00
1048	0.00
1049	0.00
1050	16800.00
1051	16800.00
1052	16800.00
1053	16800.00
1054	16800.00
1055	0.00
1056	0.00
1057	0.00
1058	0.00
1059	0.00
1060	0.00
1061	0.00
1062	0.00
1063	16800.00
1064	16800.00
1065	16800.00
1066	16800.00
1067	16800.00
1068	0.00
1069	0.00
1070	0.00
1071	0.00
1072	0.00
1073	0.00
1074	16800.00
1075	16800.00
1076	16800.00
1077	16800.00
1078	16800.00
1079	0.00
1080	0.00
1081	0.00
1082	0.00
1083	0.00
1084	0.00
1085	0.00
1086	0.00
1087	16800.00
1088	16800.00
1089	16800.00
1090	16800.00
1091	16800.00
1092	0.00
1093	0.00
1094	0.00
1095	0.00
1096	0.00
1097	0.00
1098	0.00
1099	0.00
1100	0.00
1101	16800.00
1102	16800.00
1103	16800.00
1104	16800.00
1105	0.00
1106	0.00
1107	0.00
1108	0.00
1109	0.00
1110	0.00
1111	0.00
1112	0.00
1113	16800.00
1114	16800.00
1115	16800.00
1116	-7.30
1117	-94.70
1118	-28.00
1119	0.00
1120	0.00
1121	0.00
1122	0.00
1123	0.00
1124	16800.00
1125	16800.00
1126	16800.00
1127	0.00
1128	0.00
1129	0.00
1130	0.00
1131	0.00
1132	0.00
1133	0.00
1134	0.00
1135	0.00
1136	16800.00
1137	16800.00
1138	16800.00
1139	16800.00
1140	16800.00
1141	0.00
1142	0.00
1143	0.00
1144	0.00
1145	0.00
1146	16800.00
1147	16800.00
1148	16800.00
1149	16800.00
1150	16800.00
1151	0.00
1152	0.00
1153	0.00
1154	0.00
1155	0.00
1156	0.00
1157	0.00
1158	0.00
1159	16800.00
1160	16800.00
1161	16800.00
1162	16800.00
1163	16800.00
1164	16800.00
1165	16800.00
1166	0.00
1167	0.00
1168	0.00
1169	0.00
1170	16800.00
1171	16800.00
1172	16800.00
1173	16800.00
1174	0.00
1175	0.00
1176	0.00
1177	0.00
1178	0.00
1179	0.00
1180	0.00
1181	0.00
1182	16800.00
1183	16800.00
1184	16800.00
1185	16800.00
1186	16800.00
1187	0.00
1188	0.00
1189	0.00
1190	0.00
1191	16800.00
1192	16800.00
1193	16800.00
1194	16800.00
1195	16800.00
1196	0.00
1197	0.00
1198	0.00
1199	16800.00
1200	16800.00
1201	16800.00
1202	0.00
1203	0.00
1204	0.00
1205	0.00
1206	0.00
1207	0.00
1208	16800.00
1209	16800.00
1210	16800.00
1211	16800.00
1212	16800.00
1213	0.00
1214	0.00
1215	0.00
1216	0.00
1217	16800.00
1218	16800.00
1219	16800.00
1220	16800.00
1221	16800.00
1222	0.00
1223	0.00
1224	0.00
1225	0.00
1226	0.00
1227	0.00
1228	0.00
1229	0.00
1230	16800.00
1231	16800.00
1232	16800.00
1233	16800.00
1234	0.00
1235	0.00
1236	16800.00
1237	16800.00
1238	16800.00
1239	16800.00
1240	0.00
1241	0.00
1242	16800.00
1243	16800.00
1244	16800.00
1245	16800.00
1246	16800.00
1247	16800.00
1248	0.00
1249	0.00
1250	0.00
1251	0.00
1252	0.00
1253	0.00
1254	0.00
1255	0.00
1256	16800.00
1257	16800.00
1258	16800.00
1259	16800.00
1260	16800.00
1261	16800.00
1262	0.00
1263	0.00
1264	0.00
1265	0.00
1266	0.00
1267	16800.00
1268	16800.00
1269	16800.00
1270	16800.00
1271	0.00
1272	0.00
1273	0.00
1274	0.00
1275	0.00
1276	0.00
1277	0.00
1278	16800.00
1279	16800.00
1280	16800.00
1281	16800.00
1282	0.00
1283	0.00
1284	16800.00
1285	16800.00
1286	16800.00
1287	16800.00
1288	0.00
1289	0.00
1290	16800.00
1291	16800.00
1292	16800.00
1293	16800.00
1294	0.00
1295	0.00
1296	16800.00
1297	16800.00
1298	16800.00
1299	0.00
1300	0.00
1301	0.00
1302	0.00
1303	16800.00
1304	16800.00
1305	16800.00
1306	16800.00
1307	16800.00
1308	0.00
1309	0.00
1310	16800.00
1311	16800.00
1312	16800.00
1313	16800.00
1314	16800.00
1315	16800.00
1316	0.00
1317	0.00
1318	16800.00
1319	16800.00
1320	16800.00
1321	16800.00
1322	16800.00
1323	0.00
1324	0.00
1325	0.00
1326	0.00
1327	16800.00
1328	16800.00
1329	16800.00
1330	16800.00
1331	16800.00
1332	0.00
1333	0.00
1334	16800.00
1335	16800.00
1336	16800.00
1337	16800.00
1338	16800.00
1339	0.00
1340	0.00
1341	16800.00
1342	16800.00
1343	16800.00
1344	16800.00
1345	0.00
1346	0.00
1347	16800.00
1348	16800.00
1349	16800.00
1350	16800.00
1351	16800.00
1352	16800.00
1353	0.00
1354	0.00
1355	16800.00
1356	16800.00
1357	16800.00
1358	16800.00
1359	0.00
1360	0.00
1361	0.00
1362	0.00
1363	0.00
1364	16800.00
1365	16800.00
1366	16800.00
1367	16800.00
1368	16800.00
1369	0.00
1370	0.00
1371	0.00
1372	0.00
1373	0.00
1374	0.00
1375	0.00
1376	16800.00
1377	16800.00
1378	16800.00
1379	16800.00
1380	16800.00
1381	0.00
1382	0.00
1383	0.00
1384	0.00
1385	0.00
1386	0.00
1387	16800.00
1388	16800.00
1389	16800.00
1390	16800.00
1391	16800.00
1392	16800.00
1393	0.00
1394	0.00
1395	0.00
1396	0.00
1397	0.00
1398	0.00
1399	0.00
1400	16800.00
1401	16800.00
1402	16800.00
1403	16800.00
1404	16800.00
1405	16800.00
1406	0.00
1407	0.00
1408	0.00
1409	16800.00
1410	16800.00
1411	16800.00
1412	16800.00
1413	16800.00
1414	0.00
1415	0.00
1416	0.00
1417	0.00
1418	0.00
1419	0.00
1420	0.00
1421	0.00
1422	0.00
1423	16800.00
1424	16800.00
1425	16800.00
1426	16800.00
1427	0.00
1428	0.00
1429	16800.00
1430	16800.00
1431	16800.00
1432	16800.00
1433	0.00
1434	0.00
1435	0.00
1436	0.00
1437	0.00
1438	16800.00
1439	16800.00
1440	16800.00
1441	0.00
1442	0.00
1443	0.00
1444	0.00
1445	0.00
1446	0.00
1447	16800.00
1448	16800.00
1449	16800.00
1450	16800.00
1451	16800.00
1452	0.00
1453	0.00
1454	0.00
1455	0.00
1456	0.00
1457	0.00
1458	0.00
1459	16800.00
1460	16800.00
1461	16800.00
1462	16800.00
1463	16800.00
1464	16800.00
1465	0.00
1466	0.00
1467	0.00
1468	0.00
1469	0.00
1470	0.00
1471	0.00
1472	16800.00
1473	16800.00
1474	16800.00
1475	16800.00
1476	16800.00
1477	0.00
1478	0.00
1479	0.00
1480	0.00
1481	0.00
1482	0.00
1483	0.00
1484	16800.00
1485	16800.00
1486	16800.00
1487	16800.00
1488	16800.00
1489	0.00
1490	0.00
1491	0.00
1492	0.00
1493	0.00
1494	0.00
1495	16800.00
1496	16800.00
1497	16800.00
1498	16800.00
1499	16800.00
1500	0.00
1501	0.00
1502	0.00
1503	0.00
1504	16800.00
1505	16800.00
1506	16800.00
1507	16800.00
1508	0.00
1509	0.00
1510	0.00
1511	16800.00
1512	16800.00
1513	16800.00
1514	16800.00
1515	0.00
1516	0.00
1517	0.00
1518	0.00
1519	16800.00
1520	16800.00
1521	16800.00
1522	16800.00
1523	16800.00
1524	16800.00
1525	0.00
1526	0.00
1527	0.00
1528	16800.00
1529	16800.00
1530	16800.00
1531	16800.00
1532	16800.00
1533	0.00
1534	0.00
1535	16800.00
1536	16800.00
1537	16800.00
1538	16800.00
1539	16800.00
1540	0.00
1541	0.00
1542	0.00
1543	0.00
1544	16800.00
1545	16800.00
1546	16800.00
1547	16800.00
1548	16800.00
1549	0.00
1550	0.00
1551	0.00
1552	0.00
1553	16800.00
1554	16800.00
1555	16800.00
1556	16800.00
1557	0.00
1558	0.00
1559	16800.00
1560	16800.00
1561	16800.00
1562	0.00
1563	0.00
1564	0.00
1565	0.00
1566	0.00
1567	16800.00
1568	16800.00
1569	16800.00
1570	16800.00
1571	0.00
1572	0.00
1573	0.00
1574	0.00
1575	16800.00
1576	16800.00
1577	16800.00
1578	16800.00
1579	16800.00
1580	0.00
1581	0.00
1582	0.00
1583	0.00
1584	0.00
1585	0.00
1586	0.00
1587	0.00
1588	0.00
1589	0.00
1590	16800.00
1591	16800.00
1592	16800.00
1593	16800.00
1594	16800.00
1595	16800.00
1596	0.00
1597	0.00
1598	0.00
1599	16800.00
1600	16800.00
1601	16800.00
1602	16800.00
1603	16800.00
1604	0.00
1605	0.00
1606	0.00
1607	0.00
1608	0.00
1609	0.00
1610	0.00
1611	0.00
1612	0.00
1613	0.00
1614	16800.00
1615	16800.00
1616	16800.00
1617	16800.00
1618	16800.00
1619	0.00
1620	-1.10
1621	-43.00
1622	-0.70
1623	0.00
1624	16800.00
1625	16800.00
1626	16800.00
1627	16800.00
1628	16800.00
1629	0.00
1630	0.00
1631	0.00
1632	0.00
1633	0.00
1634	0.00
1635	0.00
1636	0.00
1637	0.00
1638	0.00
1639	16800.00
1640	16800.00
1641	16800.00
1642	16800.00
1643	0.00
1644	0.00
1645	16800.00
1646	16800.00
1647	16800.00
1648	16800.00
1649	0.00
1650	0.00
1651	0.00
1652	0.00
1653	0.00
1654	0.00
1655	0.00
1656	16800.00
1657	16800.00
1658	16800.00
1659	0.00
1660	0.00
1661	0.00
1662	0.00
1663	0.00
1664	0.00
1665	16800.00
1666	16800.00
1667	16800.00
1668	16800.00
1669	0.00
1670	0.00
1671	0.00
1672	0.00
1673	0.00
1674	0.00
1675	0.00
1676	0.00
1677	0.00
1678	0.00
1679	0.00
1680	0.00
1681	0.00
1682	0.00
1683	0.00
1684	0.00
1685	0.00
1686	0.00
1687	16800.00
1688	16800.00
1689	16800.00
1690	16800.00
1691	16800.00
1692	0.00
1693	0.00
1694	0.00
1695	0.00
1696	0.00
1697	0.00
1698	0.00
1699	0.00
1700	0.00
1701	0.00
1702	0.00
1703	0.00
1704	0.00
1705	0.00
1706	0.00
1707	0.00
1708	0.00
1709	0.00
1710	16800.00
1711	16800.00
1712	16800.00
1713	16800.00
1714	16800.00
1715	0.00
1716	0.00
1717	-20.10
1718	-5.70
1719	0.00
1720	0.00
1721	0.00
1722	0.00
1723	0.00
1724	0.00
1725	0.00
1726	0.00
1727	0.00
1728	0.00
1729	0.00
1730	0.00
1731	0.00
1732	0.00
1733	0.00
1734	0.00
1735	0.00
1736	16800.00
1737	16800.00
1738	-195.20
1739	-569.80
1740	-709.40
1741	-832.70
1742	-631.30
1743	-126.60
1744	0.00
1745	0.00
1746	16800.00
1747	16800.00
1748	16800.00
1749	0.00
1750	0.00
1751	0.00
1752	0.00
1753	0.00
1754	0.00
1755	0.00
1756	0.00
1757	0.00
1758	0.00
1759	0.00
1760	0.00
1761	0.00
1762	0.00
1763	0.00
1764	16800.00
1765	-0.80
1766	-83.50
1767	-16.60
1768	0.00
1769	0.00
1770	0.00
1771	0.00
1772	0.00
1773	0.00
1774	0.00
1775	16800.00
1776	16800.00
1777	16800.00
1778	0.00
1779	0.00
1780	0.00
1781	0.00
1782	0.00
1783	0.00
1784	0.00
1785	0.00
1786	0.00
1787	0.00
1788	-14.20
1789	-14.90
1790	0.00
1791	0.00
1792	0.00
1793	0.00
1794	0.00
1795	16800.00
1796	16800.00
1797	16800.00
1798	0.00
1799	0.00
1800	0.00
1801	0.00
1802	0.00
1803	0.00
1804	0.00
1805	0.00
1806	0.00
1807	0.00
1808	0.00
1809	0.00
1810	0.00
1811	0.00
1812	0.00
1813	0.00
1814	0.00
1815	0.00
1816	0.00
1817	16800.00
1818	16800.00
1819	16800.00
1820	0.00
1821	0.00
1822	0.00
1823	0.00
1824	0.00
1825	0.00
1826	0.00
1827	0.00
1828	0.00
1829	0.00
1830	0.00
1831	0.00
1832	0.00
1833	0.00
1834	0.00
1835	0.00
1836	16800.00
1837	16800.00
1838	16800.00
1839	0.00
1840	0.00
1841	0.00
1842	0.00
1843	0.00
1844	0.00
1845	0.00
1846	0.00
1847	0.00
1848	0.00
1849	0.00
1850	0.00
1851	0.00
1852	0.00
1853	0.00
1854	0.00
1855	16800.00
1856	16800.00
1857	16800.00
1858	16800.00
1859	0.00
1860	-43.90
1861	-175.30
1862	-61.20
1863	0.00
1864	0.00
1865	0.00
1866	0.00
1867	0.00
1868	0.00
1869	0.00
1870	0.00
1871	0.00
1872	0.00
1873	0.00
1874	0.00
1875	0.00
1876	0.00
1877	0.00
1878	0.00
1879	16800.00
1880	16800.00
1881	16800.00
1882	16800.00
1883	16800.00
1884	0.00
1885	0.00
1886	0.00
1887	0.00
1888	0.00
1889	0.00
1890	0.00
1891	0.00
1892	0.00
1893	0.00
1894	0.00
1895	0.00
1896	0.00
1897	0.00
1898	0.00
1899	0.00
1900	0.00
1901	0.00
1902	0.00
1903	16800.00
1904	16800.00
1905	16800.00
1906	16800.00
1907	0.00
1908	0.00
1909	0.00
1910	0.00
1911	0.00
1912	0.00
1913	0.00
1914	0.00
1915	0.00
1916	0.00
1917	0.00
1918	0.00
1919	0.00
1920	0.00
1921	0.00
1922	0.00
1923	0.00
1924	0.00
1925	0.00
1926	0.00
1927	0.00
1928	16800.00
1929	16800.00
1930	16800.00
1931	16800.00
1932	0.00
1933	0.00
1934	0.00
1935	0.00
1936	0.00
1937	0.00
1938	0.00
1939	0.00
1940	0.00
1941	0.00
1942	0.00
1943	0.00
1944	0.00
1945	0.00
1946	0.00
1947	0.00
1948	0.00
1949	0.00
1950	0.00
1951	0.00
1952	16800.00
1953	16800.00
1954	16800.00
1955	0.00
1956	0.00
1957	0.00
1958	0.00
1959	0.00
1960	0.00
1961	0.00
1962	0.00
1963	0.00
1964	0.00
1965	0.00
1966	0.00
1967	0.00
1968	0.00
1969	0.00
1970	0.00
1971	0.00
1972	0.00
1973	0.00
1974	16800.00
1975	16800.00
1976	16800.00
1977	16800.00
1978	-8.00
1979	-243.20
1980	-99.60
1981	-74.50
1982	-1.20
1983	0.00
1984	0.00
1985	0.00
1986	0.00
1987	0.00
1988	0.00
1989	0.00
1990	0.00
1991	16800.00
1992	16800.00
1993	16800.00
1994	0.00
1995	0.00
1996	0.00
1997	0.00
1998	0.00
1999	0.00
2000	0.00
2001	0.00
2002	0.00
2003	16800.00
2004	16800.00
2005	16800.00
2006	16800.00
2007	0.00
2008	0.00
2009	0.00
2010	0.00
2011	0.00
2012	0.00
2013	0.00
2014	0.00
2015	0.00
2016	0.00
2017	0.00
2018	0.00
2019	0.00
2020	0.00
2021	16800.00
2022	16800.00
2023	16800.00
2024	16800.00
2025	16800.00
2026	16800.00
2027	0.00
2028	0.00
2029	0.00
2030	0.00
2031	0.00
2032	0.00
2033	0.00
2034	0.00
2035	0.00
2036	0.00
2037	16800.00
2038	16800.00
2039	16800.00
2040	16800.00
2041	0.00
2042	0.00
2043	0.00
2044	0.00
2045	0.00
2046	0.00
2047	0.00
2048	16800.00
2049	16800.00
2050	16800.00
2051	16800.00
2052	16800.00
2053	0.00
2054	0.00
2055	0.00
2056	0.00
2057	0.00
2058	0.00
2059	0.00
2060	0.00
2061	16800.00
2062	16800.00
2063	16800.00
2064	16800.00
2065	0.00
2066	0.00
2067	0.00
2068	0.00
2069	0.00
2070	0.00
2071	16800.00
2072	16800.00
2073	16800.00
2074	16800.00
2075	0.00
2076	0.00
2077	0.00
2078	0.00
2079	16800.00
2080	16800.00
2081	16800.00
2082	16800.00
2083	16800.00
2084	0.00
2085	0.00
2086	0.00
2087	0.00
2088	0.00
2089	0.00
2090	0.00
2091	0.00
2092	0.00
2093	0.00
2094	16800.00
2095	16800.00
2096	16800.00
2097	16800.00
2098	16800.00
2099	16800.00
2100	0.00
2101	0.00
2102	0.00
2103	0.00
2104	0.00
2105	0.00
2106	16800.00
2107	16800.00
2108	16800.00
2109	16800.00
2110	0.00
2111	0.00
2112	0.00
2113	0.00
2114	0.00
2115	0.00
2116	0.00
2117	0.00
2118	0.00
2119	16800.00
2120	16800.00
2121	16800.00
2122	16800.00
2123	16800.00
2124	0.00
2125	0.00
2126	0.00
2127	0.00
2128	0.00
2129	0.00
2130	0.00
2131	0.00
2132	0.00
2133	16800.00
2134	16800.00
2135	16800.00
2136	0.00
2137	0.00
2138	0.00
2139	0.00
2140	0.00
2141	0.00
2142	0.00
2143	0.00
2144	16800.00
2145	16800.00
2146	-22.30
2147	-343.30
2148	-299.90
2149	-340.60
2150	-135.20
2151	0.00
2152	0.00
2153	0.00
2154	0.00
2155	0.00
2156	0.00
2157	0.00
2158	0.00
2159	0.00
2160	0.00
2161	0.00
2162	0.00
2163	0.00
2164	0.00
2165	0.00
2166	16800.00
2167	16800.00
2168	16800.00
2169	-10.20
2170	-363.30
2171	-624.30
2172	-677.70
2173	-681.50
2174	-531.60
2175	-118.40
2176	0.00
2177	0.00
2178	0.00
2179	0.00
2180	0.00
2181	0.00
2182	0.00
2183	0.00
2184	0.00
2185	0.00
2186	0.00
2187	0.00
2188	0.00
2189	0.00
2190	16800.00
2191	16800.00
2192	16800.00
2193	-362.50
2194	-672.00
2195	-677.70
2196	-831.50
2197	-1017.10
2198	-793.80
2199	-585.90
2200	-81.20
2201	0.00
2202	0.00
2203	0.00
2204	0.00
2205	0.00
2206	0.00
2207	0.00
2208	0.00
2209	0.00
2210	0.00
2211	0.00
2212	0.00
2213	0.00
2214	16800.00
2215	16800.00
2216	-21.90
2217	-510.50
2218	-428.80
2219	-558.30
2220	-477.40
2221	-136.90
2222	0.00
2223	0.00
2224	0.00
2225	16800.00
2226	16800.00
2227	16800.00
2228	0.00
2229	0.00
2230	0.00
2231	0.00
2232	0.00
2233	0.00
2234	0.00
2235	0.00
2236	0.00
2237	0.00
2238	0.00
2239	0.00
2240	16800.00
2241	16800.00
2242	16800.00
2243	16800.00
2244	0.00
2245	0.00
2246	0.00
2247	0.00
2248	0.00
2249	0.00
2250	0.00
2251	0.00
2252	0.00
2253	16800.00
2254	16800.00
2255	16800.00
2256	16800.00
2257	0.00
2258	0.00
2259	0.00
2260	0.00
2261	0.00
2262	0.00
2263	0.00
2264	16800.00
2265	16800.00
2266	16800.00
2267	16800.00
2268	16800.00
2269	16800.00
2270	0.00
2271	0.00
2272	0.00
2273	0.00
2274	0.00
2275	0.00
2276	16800.00
2277	16800.00
2278	16800.00
2279	16800.00
2280	0.00
2281	0.00
2282	0.00
2283	0.00
2284	0.00
2285	0.00
2286	0.00
2287	0.00
2288	16800.00
2289	16800.00
2290	16800.00
2291	16800.00
2292	16800.00
2293	0.00
2294	0.00
2295	0.00
2296	0.00
2297	0.00
2298	0.00
2299	0.00
2300	0.00
2301	16800.00
2302	16800.00
2303	16800.00
2304	16800.00
2305	0.00
2306	0.00
2307	0.00
2308	0.00
2309	0.00
2310	0.00
2311	0.00
2312	16800.00
2313	16800.00
2314	-48.80
2315	-350.20
2316	-204.40
2317	-163.60
2318	-16.60
2319	0.00
2320	16800.00
2321	16800.00
2322	16800.00
2323	16800.00
2324	0.00
2325	0.00
2326	0.00
2327	0.00
2328	0.00
2329	0.00
2330	0.00
2331	0.00
2332	0.00
2333	0.00
2334	0.00
2335	0.00
2336	16800.00
2337	16800.00
2338	-173.70
2339	-282.80
2340	-410.40
2341	-344.80
2342	-71.90
2343	0.00
2344	0.00
2345	0.00
2346	0.00
2347	0.00
2348	0.00
2349	16800.00
2350	16800.00
2351	16800.00
2352	0.00
2353	0.00
2354	0.00
2355	0.00
2356	0.00
2357	0.00
2358	0.00
2359	0.00
2360	0.00
2361	0.00
2362	0.00
2363	0.00
2364	16800.00
2365	16800.00
2366	16800.00
2367	0.00
2368	0.00
2369	0.00
2370	0.00
2371	0.00
2372	0.00
2373	0.00
2374	0.00
2375	0.00
2376	0.00
2377	0.00
2378	0.00
2379	0.00
2380	0.00
2381	0.00
2382	0.00
2383	16800.00
2384	16800.00
2385	16800.00
2386	16800.00
2387	16800.00
2388	16800.00
2389	0.00
2390	0.00
2391	0.00
2392	0.00
2393	0.00
2394	0.00
2395	0.00
2396	0.00
2397	16800.00
2398	16800.00
2399	16800.00
2400	16800.00
2401	0.00
2402	0.00
2403	0.00
2404	0.00
2405	0.00
2406	0.00
2407	0.00
2408	16800.00
2409	16800.00
2410	16800.00
2411	16800.00
2412	16800.00
2413	0.00
2414	0.00
2415	0.00
2416	0.00
2417	0.00
2418	0.00
2419	0.00
2420	0.00
2421	0.00
2422	16800.00
2423	16800.00
2424	16800.00
2425	0.00
2426	0.00
2427	0.00
2428	0.00
2429	0.00
2430	0.00
2431	16800.00
2432	16800.00
2433	16800.00
2434	16800.00
2435	0.00
2436	0.00
2437	0.00
2438	16800.00
2439	16800.00
2440	16800.00
2441	16800.00
2442	0.00
2443	0.00
2444	0.00
2445	0.00
2446	0.00
2447	0.00
2448	0.00
2449	0.00
2450	0.00
2451	0.00
2452	0.00
2453	0.00
2454	16800.00
2455	16800.00
2456	16800.00
2457	16800.00
2458	0.00
2459	0.00
2460	16800.00
2461	16800.00
2462	16800.00
2463	16800.00
2464	16800.00
2465	0.00
2466	0.00
2467	0.00
2468	0.00
2469	16800.00
2470	16800.00
2471	16800.00
2472	16800.00
2473	0.00
2474	0.00
2475	0.00
2476	0.00
2477	0.00
2478	0.00
2479	0.00
2480	0.00
2481	16800.00
2482	16800.00
2483	16800.00
2484	16800.00
2485	0.00
2486	0.00
2487	0.00
2488	0.00
2489	0.00
2490	0.00
2491	0.00
2492	0.00
2493	0.00
2494	0.00
2495	0.00
2496	0.00
2497	0.00
2498	0.00
2499	0.00
2500	0.00
2501	0.00
2502	16800.00
2503	16800.00
2504	16800.00
2505	16800.00
2506	0.00
2507	0.00
2508	0.00
2509	0.00
2510	16800.00
2511	16800.00
2512	16800.00
2513	0.00
2514	0.00
2515	0.00
2516	0.00
2517	0.00
2518	0.00
2519	0.00
2520	0.00
2521	0.00
2522	0.00
2523	0.00
2524	0.00
2525	0.00
2526	0.00
2527	16800.00
2528	16800.00
2529	16800.00
2530	16800.00
2531	0.00
2532	0.00
2533	0.00
2534	0.00
2535	0.00
2536	0.00
2537	0.00
2538	0.00
2539	0.00
2540	0.00
2541	0.00
2542	16800.00
2543	16800.00
2544	16800.00
2545	0.00
2546	0.00
2547	0.00
2548	0.00
2549	0.00
2550	0.00
2551	0.00
2552	0.00
2553	0.00
2554	0.00
2555	16800.00
2556	16800.00
2557	16800.00
2558	0.00
2559	0.00
2560	0.00
2561	0.00
2562	0.00
2563	0.00
2564	0.00
2565	0.00
2566	0.00
2567	0.00
2568	0.00
2569	0.00
2570	0.00
2571	0.00
2572	0.00
2573	0.00
2574	16800.00
2575	16800.00
2576	16800.00
2577	16800.00
2578	16800.00
2579	0.00
2580	0.00
2581	0.00
2582	0.00
2583	0.00
2584	0.00
2585	0.00
2586	0.00
2587	0.00
2588	0.00
2589	0.00
2590	0.00
2591	0.00
2592	0.00
2593	0.00
2594	0.00
2595	0.00
2596	0.00
2597	0.00
2598	0.00
2599	16800.00
2600	16800.00
2601	16800.00
2602	16800.00
2603	0.00
2604	0.00
2605	0.00
2606	0.00
2607	0.00
2608	0.00
2609	0.00
2610	0.00
2611	0.00
2612	0.00
2613	0.00
2614	0.00
2615	0.00
2616	0.00
2617	0.00
2618	0.00
2619	0.00
2620	0.00
2621	0.00
2622	16800.00
2623	16800.00
2624	16800.00
2625	16800.00
2626	0.00
2627	0.00
2628	0.00
2629	0.00
2630	0.00
2631	0.00
2632	0.00
2633	0.00
2634	0.00
2635	0.00
2636	0.00
2637	0.00
2638	0.00
2639	0.00
2640	0.00
2641	0.00
2642	0.00
2643	0.00
2644	0.00
2645	0.00
2646	0.00
2647	0.00
2648	0.00
2649	0.00
2650	16800.00
2651	16800.00
2652	-1.30
2653	-3.10
2654	0.00
2655	0.00
2656	0.00
2657	0.00
2658	0.00
2659	0.00
2660	0.00
2661	0.00
2662	0.00
2663	0.00
2664	0.00
2665	0.00
2666	0.00
2667	0.00
2668	0.00
2669	0.00
2670	0.00
2671	0.00
2672	0.00
2673	0.00
2674	0.00
2675	-10.30
2676	-114.10
2677	-30.30
2678	0.00
2679	16800.00
2680	16800.00
2681	16800.00
2682	0.00
2683	0.00
2684	0.00
2685	0.00
2686	0.00
2687	0.00
2688	0.00
2689	0.00
2690	0.00
2691	0.00
2692	0.00
2693	0.00
2694	0.00
2695	0.00
2696	0.00
2697	0.00
2698	0.00
2699	0.00
2700	0.00
2701	0.00
2702	0.00
2703	0.00
2704	0.00
2705	0.00
2706	0.00
2707	16800.00
2708	16800.00
2709	16800.00
2710	0.00
2711	0.00
2712	0.00
2713	0.00
2714	0.00
2715	0.00
2716	0.00
2717	0.00
2718	0.00
2719	0.00
2720	0.00
2721	0.00
2722	0.00
2723	0.00
2724	0.00
2725	0.00
2726	16800.00
2727	16800.00
2728	16800.00
2729	0.00
2730	0.00
2731	0.00
2732	0.00
2733	0.00
2734	0.00
2735	0.00
2736	0.00
2737	0.00
2738	0.00
2739	0.00
2740	0.00
2741	0.00
2742	0.00
2743	-64.50
2744	-617.50
2745	-1282.50
2746	-1142.50
2747	-932.80
2748	-987.20
2749	-1012.30
2750	-911.10
2751	-252.20
2752	-14.20
2753	0.00
2754	0.00
2755	-31.40
2756	0.00
2757	0.00
2758	0.00
2759	0.00
2760	0.00
2761	0.00
2762	0.00
2763	0.00
2764	0.00
2765	0.00
2766	-151.60
2767	-844.60
2768	-1355.90
2769	-1052.20
2770	-1226.90
2771	-1208.90
2772	-1225.30
2773	-1198.10
2774	-801.50
2775	-90.50
2776	-2.10
2777	0.00
2778	16800.00
2779	-92.70
2780	0.00
2781	0.00
2782	0.00
2783	0.00
2784	0.00
2785	0.00
2786	0.00
2787	0.00
2788	0.00
2789	0.00
2790	0.00
2791	16800.00
2792	16800.00
2793	16800.00
2794	0.00
2795	0.00
2796	0.00
2797	0.00
2798	0.00
2799	0.00
2800	0.00
2801	0.00
2802	0.00
2803	0.00
2804	0.00
2805	0.00
2806	0.00
2807	0.00
2808	0.00
2809	0.00
2810	0.00
2811	0.00
2812	0.00
2813	0.00
2814	0.00
2815	0.00
2816	0.00
2817	0.00
2818	0.00
2819	0.00
2820	0.00
2821	0.00
2822	0.00
2823	0.00
2824	0.00
2825	0.00
2826	0.00
2827	0.00
2828	16800.00
2829	16800.00
2830	16800.00
2831	0.00
2832	0.00
2833	0.00
2834	0.00
2835	0.00
2836	0.00
2837	0.00
2838	0.00
2839	0.00
2840	0.00
2841	0.00
2842	-1.60
2843	-97.50
2844	-361.00
2845	-155.60
2846	-118.60
2847	-2.20
2848	0.00
2849	0.00
2850	0.00
2851	0.00
2852	0.00
2853	0.00
2854	0.00
2855	0.00
2856	0.00
2857	0.00
2858	0.00
2859	0.00
2860	0.00
2861	0.00
2862	0.00
2863	0.00
2864	-362.50
2865	-1256.00
2866	-1396.10
2867	-1278.30
2868	-1311.60
2869	-1321.20
2870	-1341.10
2871	-1050.40
2872	-531.70
2873	-92.20
2874	-2.10
2875	-219.60
2876	0.00
2877	16800.00
2878	16800.00
2879	16800.00
2880	0.00
2881	0.00
2882	0.00
2883	0.00
2884	0.00
2885	0.00
2886	-630.80
2887	-1264.80
2888	-1468.20
2889	-1468.20
2890	-1468.20
2891	-1565.40
2892	-2163.00
2893	-2797.30
2894	-3165.00
2895	-3099.70
2896	-3696.90
2897	-3173.90
2898	-1361.60
2899	-1092.30
2900	-673.50
2901	-93.10
2902	-17.90
2903	-35.80
2904	0.00
2905	0.00
2906	0.00
2907	0.00
2908	0.00
2909	0.00
2910	-538.70
2911	-1267.20
2912	-1467.60
2913	-1468.20
2914	-1495.50
2915	-1620.60
2916	-1850.30
2917	-2169.90
2918	-2334.90
2919	-2357.30
2920	-3402.20
2921	-3005.30
2922	-971.90
2923	-743.40
2924	-335.30
2925	-37.10
2926	-3.80
2927	-27.60
2928	0.00
2929	0.00
2930	16800.00
2931	16800.00
2932	16800.00
2933	-40.80
2934	-1287.30
2935	-1581.30
2936	-2194.10
2937	-2523.30
2938	-3122.60
2939	-4308.50
2940	-4720.40
2941	-4834.60
2942	-5634.60
2943	-5583.60
2944	-4986.20
2945	-4558.50
2946	-3427.30
2947	-2070.10
2948	-1401.00
2949	-905.80
2950	-580.70
2951	-590.20
2952	-229.30
2953	-72.00
2954	-4.80
2955	0.00
2956	0.00
2957	-37.90
2958	-954.10
2959	-1090.40
2960	-1305.70
2961	-1440.60
2962	-1615.90
2963	-1418.50
2964	-1651.50
2965	-2933.90
2966	-3900.30
2967	-3906.80
2968	-3552.70
2969	-2391.40
2970	-251.10
2971	-133.60
2972	0.00
2973	0.00
2974	0.00
2975	0.00
2976	0.00
2977	0.00
2978	0.00
2979	0.00
2980	0.00
2981	0.00
2982	0.00
2983	0.00
2984	0.00
2985	0.00
2986	16800.00
2987	16800.00
2988	16800.00
2989	0.00
2990	0.00
2991	0.00
2992	0.00
2993	0.00
2994	0.00
2995	0.00
2996	0.00
2997	0.00
2998	0.00
2999	0.00
3000	0.00
3001	0.00
3002	0.00
3003	0.00
3004	0.00
3005	0.00
3006	0.00
3007	0.00
3008	0.00
3009	0.00
3010	0.00
3011	0.00
3012	0.00
3013	0.00
3014	0.00
3015	0.00
3016	0.00
3017	0.00
3018	0.00
3019	0.00
3020	0.00
3021	0.00
3022	16800.00
3023	16800.00
3024	16800.00
3025	0.00
3026	0.00
3027	0.00
3028	0.00
3029	0.00
3030	0.00
3031	0.00
3032	0.00
3033	0.00
3034	0.00
3035	0.00
3036	0.00
3037	0.00
3038	0.00
3039	0.00
3040	0.00
3041	0.00
3042	0.00
3043	0.00
3044	0.00
3045	0.00
3046	0.00
3047	0.00
3048	0.00
3049	0.00
3050	0.00
3051	0.00
3052	0.00
3053	0.00
3054	16800.00
3055	-13.80
3056	-344.70
3057	-455.10
3058	-256.80
3059	-92.80
3060	-168.60
3061	-171.10
3062	-120.50
3063	0.00
3064	16800.00
3065	16800.00
3066	16800.00
3067	-6.50
3068	0.00
3069	0.00
3070	0.00
3071	0.00
3072	0.00
3073	0.00
3074	0.00
3075	0.00
3076	0.00
3077	0.00
3078	0.00
3079	0.00
3080	0.00
3081	0.00
3082	0.00
3083	-34.40
3084	-112.00
3085	-121.80
3086	-59.80
3087	0.00
3088	0.00
3089	0.00
3090	0.00
3091	0.00
3092	0.00
3093	0.00
3094	0.00
3095	0.00
3096	0.00
3097	0.00
3098	0.00
3099	0.00
3100	0.00
3101	0.00
3102	0.00
3103	0.00
3104	0.00
3105	0.00
3106	0.00
3107	0.00
3108	-22.30
3109	-80.60
3110	-82.40
3111	0.00
3112	16800.00
3113	16800.00
3114	16800.00
3115	0.00
3116	0.00
3117	0.00
3118	0.00
3119	0.00
3120	0.00
3121	0.00
3122	0.00
3123	0.00
3124	0.00
3125	0.00
3126	0.00
3127	0.00
3128	-21.30
3129	-234.50
3130	-644.80
3131	-725.40
3132	-702.90
3133	-707.00
3134	-533.00
3135	-51.30
3136	0.00
3137	0.00
3138	0.00
3139	-71.00
3140	0.00
3141	0.00
3142	0.00
3143	0.00
3144	0.00
3145	0.00
3146	0.00
3147	0.00
3148	0.00
3149	0.00
3150	-402.40
3151	-1077.00
3152	-1407.00
3153	-1468.20
3154	-1456.70
3155	-1357.90
3156	-1468.20
3157	-1426.70
3158	-1211.30
3159	-569.80
3160	-280.30
3161	-69.80
3162	-19.20
3163	-293.00
3164	0.00
3165	16800.00
3166	16800.00
3167	16800.00
3168	16800.00
3169	0.00
3170	0.00
3171	0.00
3172	0.00
3173	0.00
3174	0.00
3175	0.00
3176	0.00
3177	-68.20
3178	-237.20
3179	-655.00
3180	-917.00
3181	-331.40
3182	-363.60
3183	-27.70
3184	0.00
3185	0.00
3186	0.00
3187	0.00
3188	0.00
3189	0.00
3190	0.00
3191	0.00
3192	0.00
3193	0.00
3194	0.00
3195	0.00
3196	0.00
3197	0.00
3198	0.00
3199	0.00
3200	0.00
3201	0.00
3202	0.00
3203	0.00
3204	-8.70
3205	-34.50
3206	0.00
3207	0.00
3208	0.00
3209	0.00
3210	0.00
3211	16800.00
3212	16800.00
3213	16800.00
3214	0.00
3215	0.00
3216	0.00
3217	0.00
3218	0.00
3219	0.00
3220	0.00
3221	0.00
3222	0.00
3223	0.00
3224	0.00
3225	0.00
3226	0.00
3227	0.00
3228	0.00
3229	0.00
3230	0.00
3231	0.00
3232	0.00
3233	0.00
3234	0.00
3235	0.00
3236	0.00
3237	0.00
3238	0.00
3239	0.00
3240	0.00
3241	0.00
3242	0.00
3243	0.00
3244	0.00
3245	0.00
3246	16800.00
3247	16800.00
3248	-91.40
3249	-435.10
3250	-631.90
3251	-707.00
3252	-757.70
3253	-699.50
3254	-400.90
3255	-68.80
3256	-1.20
3257	0.00
3258	0.00
3259	0.00
3260	0.00
3261	0.00
3262	0.00
3263	0.00
3264	0.00
3265	0.00
3266	0.00
3267	0.00
3268	0.00
3269	0.00
3270	16800.00
3271	16800.00
3272	16800.00
3273	0.00
3274	0.00
3275	0.00
3276	0.00
3277	0.00
3278	0.00
3279	0.00
3280	0.00
3281	0.00
3282	0.00
3283	0.00
3284	0.00
3285	0.00
3286	0.00
3287	0.00
3288	0.00
3289	0.00
3290	0.00
3291	0.00
3292	0.00
3293	0.00
3294	0.00
3295	0.00
3296	0.00
3297	0.00
3298	0.00
3299	0.00
3300	-54.80
3301	-108.80
3302	-65.00
3303	0.00
3304	0.00
3305	0.00
3306	16800.00
3307	16800.00
3308	16800.00
3309	0.00
3310	0.00
3311	0.00
3312	0.00
3313	0.00
3314	0.00
3315	0.00
3316	0.00
3317	0.00
3318	0.00
3319	0.00
3320	-26.10
3321	-15.40
3322	0.00
3323	0.00
3324	-133.10
3325	-67.30
3326	-24.10
3327	0.00
3328	0.00
3329	0.00
3330	0.00
3331	0.00
3332	0.00
3333	0.00
3334	0.00
3335	0.00
3336	0.00
3337	0.00
3338	0.00
3339	0.00
3340	0.00
3341	0.00
3342	0.00
3343	-31.20
3344	-356.10
3345	-833.20
3346	-1025.10
3347	-1166.60
3348	-1264.60
3349	-943.90
3350	-628.40
3351	-77.00
3352	0.00
3353	16800.00
3354	16800.00
3355	16800.00
3356	0.00
3357	0.00
3358	0.00
3359	0.00
3360	0.00
3361	0.00
3362	0.00
3363	0.00
3364	0.00
3365	0.00
3366	0.00
3367	0.00
3368	0.00
3369	0.00
3370	0.00
3371	0.00
3372	0.00
3373	0.00
3374	0.00
3375	0.00
3376	0.00
3377	0.00
3378	0.00
3379	0.00
3380	0.00
3381	0.00
3382	0.00
3383	0.00
3384	0.00
3385	0.00
3386	0.00
3387	0.00
3388	0.00
3389	0.00
3390	0.00
3391	0.00
3392	16800.00
3393	16800.00
3394	16800.00
3395	0.00
3396	0.00
3397	0.00
3398	0.00
3399	0.00
3400	0.00
3401	0.00
3402	0.00
3403	0.00
3404	0.00
3405	0.00
3406	0.00
3407	0.00
3408	0.00
3409	0.00
3410	0.00
3411	0.00
3412	0.00
3413	0.00
3414	0.00
3415	0.00
3416	0.00
3417	0.00
3418	0.00
3419	0.00
3420	0.00
3421	0.00
3422	0.00
3423	0.00
3424	0.00
3425	0.00
3426	0.00
3427	16800.00
3428	16800.00
3429	16800.00
3430	0.00
3431	0.00
3432	0.00
3433	0.00
3434	0.00
3435	0.00
3436	0.00
3437	0.00
3438	0.00
3439	0.00
3440	-37.50
3441	-221.50
3442	-301.40
3443	-414.90
3444	-537.40
3445	-527.90
3446	-451.30
3447	-99.10
3448	-54.10
3449	-27.40
3450	-4.30
3451	-247.20
3452	0.00
3453	0.00
3454	0.00
3455	0.00
3456	0.00
3457	0.00
3458	0.00
3459	0.00
3460	0.00
3461	0.00
3462	0.00
3463	0.00
3464	-185.40
3465	-471.90
3466	-503.30
3467	-509.70
3468	-590.00
3469	-576.50
3470	-393.00
3471	-10.60
3472	0.00
3473	0.00
3474	0.00
3475	-45.30
3476	0.00
3477	0.00
3478	0.00
3479	0.00
3480	0.00
3481	0.00
3482	0.00
3483	0.00
3484	0.00
3485	0.00
3486	-0.50
3487	-126.90
3488	-540.80
3489	-1142.80
3490	-1283.00
3491	-1165.80
3492	-1407.10
3493	-1293.70
3494	-1133.60
3495	-555.90
3496	-327.20
3497	-152.10
3498	-70.80
3499	-454.10
3500	-1.90
3501	0.00
3502	16800.00
3503	16800.00
3504	16800.00
3505	16800.00
3506	0.00
3507	0.00
3508	0.00
3509	0.00
3510	-25.50
3511	-140.90
3512	-536.20
3513	-924.50
3514	-1132.50
3515	-1215.20
3516	-1219.40
3517	-1188.30
3518	-1011.40
3519	-311.50
3520	-99.50
3521	-65.90
3522	-35.20
3523	-398.80
3524	-14.70
3525	0.00
3526	0.00
3527	0.00
3528	0.00
3529	0.00
3530	0.00
3531	0.00
3532	0.00
3533	0.00
3534	-86.60
3535	-405.70
3536	-726.50
3537	-1369.20
3538	-1468.20
3539	-1450.30
3540	-1546.70
3541	-1930.30
3542	-2609.70
3543	-3049.90
3544	-2702.20
3545	-1622.40
3546	-451.10
3547	-562.80
3548	-132.20
3549	-12.60
3550	0.00
3551	-32.00
3552	0.00
3553	0.00
3554	0.00
3555	0.00
3556	0.00
3557	-102.20
3558	-1274.80
3559	-1372.20
3560	-1567.50
3561	-1757.30
3562	-2121.80
3563	-2972.30
3564	-3833.30
3565	-4270.10
3566	-4939.70
3567	-5191.60
3568	-4922.40
3569	-4762.10
3570	-4329.20
3571	-2407.50
3572	-1231.90
3573	-445.90
3574	-217.70
3575	-296.30
3576	-95.30
3577	-7.50
3578	0.00
3579	16800.00
3580	16800.00
3581	16800.00
3582	-113.40
3583	-216.00
3584	-293.00
3585	-374.20
3586	-380.90
3587	-354.60
3588	-342.70
3589	-290.90
3590	-162.50
3591	0.00
3592	0.00
3593	0.00
3594	0.00
3595	-74.60
3596	0.00
3597	0.00
3598	0.00
3599	0.00
3600	0.00
3601	0.00
3602	0.00
3603	0.00
3604	0.00
3605	0.00
3606	0.00
3607	0.00
3608	0.00
3609	0.00
3610	0.00
3611	0.00
3612	-39.10
3613	-65.50
3614	-5.20
3615	0.00
3616	0.00
3617	0.00
3618	16800.00
3619	16800.00
3620	16800.00
3621	0.00
3622	0.00
3623	0.00
3624	0.00
3625	0.00
3626	0.00
3627	0.00
3628	0.00
3629	0.00
3630	0.00
3631	0.00
3632	0.00
3633	0.00
3634	0.00
3635	0.00
3636	0.00
3637	0.00
3638	0.00
3639	0.00
3640	0.00
3641	0.00
3642	0.00
3643	0.00
3644	0.00
3645	0.00
3646	0.00
3647	0.00
3648	0.00
3649	0.00
3650	0.00
3651	0.00
3652	0.00
3653	0.00
3654	0.00
3655	0.00
3656	0.00
3657	0.00
3658	0.00
3659	0.00
3660	-81.00
3661	-74.80
3662	-74.00
3663	0.00
3664	0.00
3665	0.00
3666	0.00
3667	0.00
3668	0.00
3669	0.00
3670	0.00
3671	16800.00
3672	16800.00
3673	16800.00
3674	0.00
3675	0.00
3676	0.00
3677	0.00
3678	0.00
3679	-66.80
3680	-603.10
3681	-933.90
3682	-929.50
3683	-1062.90
3684	-835.70
3685	-476.80
3686	-203.10
3687	-1.00
3688	0.00
3689	0.00
3690	0.00
3691	-65.40
3692	0.00
3693	0.00
3694	0.00
3695	0.00
3696	0.00
3697	0.00
3698	0.00
3699	0.00
3700	0.00
3701	0.00
3702	0.00
3703	0.00
3704	0.00
3705	0.00
3706	0.00
3707	-30.60
3708	-95.90
3709	-150.50
3710	-179.60
3711	-0.50
3712	0.00
3713	0.00
3714	0.00
3715	0.00
3716	0.00
3717	0.00
3718	0.00
3719	0.00
3720	0.00
3721	0.00
3722	0.00
3723	0.00
3724	0.00
3725	0.00
3726	0.00
3727	0.00
3728	-229.10
3729	-511.80
3730	-572.90
3731	-395.20
3732	-224.40
3733	-183.20
3734	-184.10
3735	-12.80
3736	-8.90
3737	-0.30
3738	0.00
3739	-57.10
3740	0.00
3741	16800.00
3742	16800.00
3743	16800.00
3744	0.00
3745	0.00
3746	0.00
3747	0.00
3748	0.00
3749	0.00
3750	0.00
3751	-271.60
3752	-738.30
3753	-1056.30
3754	-1187.00
3755	-1014.40
3756	-1051.30
3757	-514.20
3758	-465.60
3759	-195.50
3760	-98.80
3761	-15.40
3762	0.00
3763	-154.30
3764	0.00
3765	0.00
3766	0.00
3767	0.00
3768	0.00
3769	0.00
3770	0.00
3771	0.00
3772	0.00
3773	0.00
3774	0.00
3775	0.00
3776	0.00
3777	0.00
3778	-25.10
3779	-214.30
3780	-202.10
3781	-126.80
3782	-75.60
3783	0.00
3784	0.00
3785	0.00
3786	0.00
3787	0.00
3788	0.00
3789	0.00
3790	16800.00
3791	16800.00
3792	16800.00
3793	0.00
3794	0.00
3795	0.00
3796	0.00
3797	0.00
3798	-74.30
3799	-168.30
3800	-126.50
3801	-136.90
3802	-107.50
3803	-118.30
3804	-190.10
3805	-187.50
3806	-156.20
3807	0.00
3808	0.00
3809	0.00
3810	0.00
3811	-10.30
3812	0.00
3813	0.00
3814	0.00
3815	0.00
3816	0.00
3817	0.00
3818	0.00
3819	0.00
3820	0.00
3821	0.00
3822	0.00
3823	0.00
3824	-56.90
3825	-392.10
3826	-1005.30
3827	-978.30
3828	-1377.40
3829	-1282.70
3830	-1082.00
3831	-825.90
3832	-942.30
3833	-722.20
3834	-115.90
3835	-395.70
3836	-0.40
3837	0.00
3838	16800.00
3839	16800.00
3840	16800.00
3841	0.00
3842	0.00
3843	0.00
3844	0.00
3845	-11.90
3846	-965.80
3847	-1429.20
3848	-1468.20
3849	-1530.60
3850	-1475.00
3851	-1562.50
3852	-1934.40
3853	-2551.90
3854	-3500.20
3855	-4764.40
3856	-4867.90
3857	-4764.30
3858	-4088.20
3859	-2081.10
3860	-1495.40
3861	-886.60
3862	-581.90
3863	-612.80
3864	-312.10
3865	-141.80
3866	-71.60
3867	-19.40
3868	-101.00
3869	-1000.30
3870	-1707.30
3871	-3077.40
3872	-3645.10
3873	-4048.90
3874	-4818.70
3875	-5784.50
3876	-6618.30
3877	-7239.60
3878	-7086.90
3879	-6912.30
3880	-6159.00
3881	-5036.40
3882	-4477.50
3883	-3034.80
3884	-2202.70
3885	-2263.00
3886	-1975.40
3887	-1692.40
3888	-1559.20
3889	-1313.20
3890	-1061.30
3891	-760.60
3892	-683.50
3893	-1081.80
3894	-1468.20
3895	-1419.80
3896	-1570.40
3897	-1967.00
3898	-1953.90
3899	-2545.50
3900	-2263.00
3901	-2042.70
3902	-1974.80
3903	-2411.30
3904	-2675.30
3905	-1228.20
3906	-535.50
3907	-814.90
3908	-517.70
3909	-198.40
3910	-88.70
3911	-158.80
3912	-9.40
3913	0.00
3914	16800.00
3915	16800.00
3916	16800.00
3917	-245.00
3918	-1380.90
3919	-1769.00
3920	-2083.90
3921	-1822.60
3922	-2045.20
3923	-2509.70
3924	-3510.30
3925	-4446.00
3926	-5259.00
3927	-5637.50
3928	-5488.80
3929	-5158.40
3930	-4493.10
3931	-2796.40
3932	-1467.00
3933	-647.80
3934	-255.50
3935	-340.90
3936	-117.00
3937	-4.70
3938	0.00
3939	0.00
3940	-0.10
3941	-404.10
3942	-1583.30
3943	-2705.90
3944	-3474.80
3945	-4218.60
3946	-5519.70
3947	-6324.20
3948	-7021.80
3949	-7669.60
3950	-7770.10
3951	-7344.30
3952	-6887.50
3953	-6547.70
3954	-6611.90
3955	-6667.20
3956	-4773.00
3957	-3390.70
3958	-2607.10
3959	-2027.30
3960	-1420.30
3961	-1105.30
3962	-838.50
3963	-584.70
3964	-600.10
3965	-1109.40
3966	-1574.70
3967	-2036.20
3968	-3906.10
3969	-5686.70
3970	-6656.00
3971	-6981.30
3972	-6872.90
3973	-6837.80
3974	-6720.70
3975	-6417.30
3976	-6310.20
3977	-6019.10
3978	-5650.10
3979	-4419.30
3980	-2553.10
3981	-1868.90
3982	-1326.10
3983	-1153.50
3984	-638.30
3985	-381.40
3986	-308.80
3987	-243.20
3988	-193.60
3989	-278.10
3990	-1333.40
3991	-1698.50
3992	-2433.00
3993	-3197.30
3994	-3789.60
3995	-5246.70
3996	-4693.00
3997	-3811.20
3998	-5131.30
3999	-5655.70
4000	-4662.90
4001	-3626.70
4002	-2276.30
4003	-1728.70
4004	-597.80
4005	-107.90
4006	-53.90
4007	-142.60
4008	-4.80
4009	0.00
4010	16800.00
4011	16800.00
4012	16800.00
4013	16800.00
4014	-236.50
4015	-502.70
4016	-1123.90
4017	-1397.20
4018	-1450.20
4019	-1543.40
4020	-1925.80
4021	-1938.60
4022	-2340.90
4023	-3002.90
4024	-2860.80
4025	-2236.60
4026	-810.30
4027	-415.90
4028	-14.80
4029	0.00
4030	0.00
4031	0.00
4032	0.00
4033	0.00
4034	0.00
4035	0.00
4036	0.00
4037	0.00
4038	-174.30
4039	-745.10
4040	-1317.00
4041	-1461.30
4042	-1462.70
4043	-1456.30
4044	-1905.60
4045	-2256.10
4046	-3299.80
4047	-3977.90
4048	-3966.70
4049	-3408.90
4050	-1905.50
4051	-762.10
4052	-128.60
4053	0.00
4054	0.00
4055	0.00
4056	0.00
4057	0.00
4058	0.00
4059	0.00
4060	0.00
4061	0.00
4062	-386.60
4063	-1205.40
4064	-1616.80
4065	-2033.70
4066	-2314.80
4067	-3165.60
4068	-3876.60
4069	-4666.90
4070	-5422.70
4071	-5669.10
4072	-5397.90
4073	-5201.50
4074	-5105.90
4075	-3891.50
4076	-1838.20
4077	-813.10
4078	-323.50
4079	-406.20
4080	-162.20
4081	-58.30
4082	-24.40
4083	0.00
4084	-82.70
4085	-997.50
4086	-1488.00
4087	-1854.60
4088	-2786.60
4089	-3785.50
4090	-4732.70
4091	-6028.10
4092	-7649.90
4093	-7783.70
4094	-7573.70
4095	-5875.50
4096	-4510.20
4097	-3778.80
4098	-3619.00
4099	-2888.50
4100	-1369.80
4101	-708.10
4102	-236.80
4103	-387.00
4104	-167.80
4105	-40.50
4106	-0.60
4107	0.00
4108	-20.40
4109	-630.70
4110	-1439.70
4111	-1520.40
4112	-2494.70
4113	-3683.30
4114	-3827.60
4115	-3140.00
4116	-4225.40
4117	-3662.80
4118	-2918.80
4119	-3263.10
4120	-3442.00
4121	-4543.20
4122	-3770.50
4123	-2490.10
4124	-1115.20
4125	-586.40
4126	-211.50
4127	-272.00
4128	-100.00
4129	-25.40
4130	0.00
4131	16800.00
4132	16800.00
4133	-107.40
4134	-932.30
4135	-1438.30
4136	-3217.90
4137	-4835.00
4138	-6298.40
4139	-6927.30
4140	-7697.00
4141	-7594.60
4142	-7585.70
4143	-7211.40
4144	-6706.60
4145	-6319.80
4146	-6044.70
4147	-5390.10
4148	-3286.50
4149	-2166.20
4150	-1577.50
4151	-1499.80
4152	-994.60
4153	-699.20
4154	-356.90
4155	-210.30
4156	-186.10
4157	-264.20
4158	-1173.90
4159	-1179.60
4160	-1392.40
4161	-1938.30
4162	-3371.50
4163	-5694.60
4164	-7114.10
4165	-7417.90
4166	-7355.40
4167	-6984.30
4168	-6226.00
4169	-5579.90
4170	-4574.80
4171	-3416.00
4172	-1410.40
4173	-361.60
4174	-183.20
4175	-299.00
4176	-110.60
4177	-20.80
4178	0.00
4179	16800.00
4180	16800.00
4181	-219.00
4182	-1359.10
4183	-2273.40
4184	-3269.00
4185	-4151.50
4186	-5453.80
4187	-6315.50
4188	-6917.60
4189	-6694.00
4190	-6719.00
4191	-6376.30
4192	-5991.00
4193	-5667.70
4194	-4821.40
4195	-3169.90
4196	-1298.60
4197	-347.10
4198	-135.80
4199	-181.20
4200	-53.10
4201	0.00
4202	16800.00
4203	16800.00
4204	16800.00
4205	-406.80
4206	-1691.30
4207	-2614.10
4208	-3369.50
4209	-3905.80
4210	-4492.80
4211	-5414.60
4212	-6008.60
4213	-6152.80
4214	-5963.80
4215	-5910.40
4216	-5731.10
4217	-5397.20
4218	-4846.90
4219	-3103.00
4220	-1311.50
4221	-620.60
4222	-294.60
4223	-322.00
4224	-78.50
4225	0.00
4226	0.00
4227	0.00
4228	0.00
4229	-480.40
4230	-1510.00
4231	-2227.80
4232	-2816.10
4233	-3589.80
4234	-5441.40
4235	-6409.30
4236	-6958.30
4237	-7305.50
4238	-7288.50
4239	-6753.00
4240	-6334.70
4241	-5983.60
4242	-5930.30
4243	-5494.90
4244	-3119.40
4245	-1791.50
4246	-934.60
4247	-933.00
4248	-398.10
4249	-197.60
4250	-99.10
4251	-31.90
4252	-134.60
4253	-1033.10
4254	-1913.40
4255	-3095.90
4256	-3787.60
4257	-4471.70
4258	-4581.70
4259	-5742.90
4260	-6636.00
4261	-6043.10
4262	-4679.00
4263	-5011.60
4264	-5194.90
4265	-4507.00
4266	-3117.20
4267	-2056.70
4268	-969.90
4269	-269.80
4270	-118.20
4271	-175.90
4272	-15.80
4273	0.00
4274	16800.00
4275	16800.00
4276	16800.00
4277	-131.50
4278	-1296.70
4279	-1303.00
4280	-1423.70
4281	-1774.30
4282	-1911.60
4283	-2144.30
4284	-2941.80
4285	-3599.40
4286	-3569.20
4287	-3149.80
4288	-1568.20
4289	-432.90
4290	-120.20
4291	-460.70
4292	-77.50
4293	0.00
4294	0.00
4295	0.00
4296	0.00
4297	0.00
4298	0.00
4299	0.00
4300	0.00
4301	0.00
4302	-8.40
4303	-174.70
4304	-667.20
4305	-1293.40
4306	-1312.30
4307	-1311.00
4308	-1287.80
4309	-1398.20
4310	-1095.50
4311	-560.80
4312	-347.60
4313	-196.30
4314	-54.90
4315	-361.20
4316	-0.50
4317	0.00
4318	0.00
4319	0.00
4320	0.00
4321	0.00
4322	0.00
4323	0.00
4324	0.00
4325	0.00
4326	0.00
4327	0.00
4328	-132.90
4329	-148.00
4330	-293.60
4331	-536.60
4332	-821.80
4333	-751.10
4334	-668.20
4335	-365.00
4336	-334.70
4337	-230.10
4338	-196.90
4339	-827.30
4340	-81.70
4341	-1.00
4342	0.00
4343	16800.00
4344	16800.00
4345	16800.00
4346	0.00
4347	0.00
4348	0.00
4349	0.00
4350	0.00
4351	0.00
4352	0.00
4353	-199.10
4354	-443.90
4355	-676.70
4356	-1289.60
4357	-939.70
4358	-831.00
4359	-360.70
4360	-48.00
4361	0.00
4362	0.00
4363	-234.10
4364	0.00
4365	0.00
4366	0.00
4367	0.00
4368	0.00
4369	0.00
4370	0.00
4371	0.00
4372	0.00
4373	0.00
4374	-47.40
4375	-505.60
4376	-1150.50
4377	-1462.70
4378	-1468.20
4379	-1472.50
4380	-1645.00
4381	-1687.10
4382	-1612.80
4383	-1068.70
4384	-621.10
4385	-356.00
4386	-292.60
4387	-830.60
4388	-308.50
4389	-123.10
4390	-63.80
4391	-193.10
4392	-28.20
4393	0.00
4394	16800.00
4395	16800.00
4396	16800.00
4397	0.00
4398	-231.80
4399	-622.20
4400	-646.10
4401	-661.30
4402	-826.50
4403	-1457.40
4404	-1736.90
4405	-1986.30
4406	-2210.70
4407	-2857.60
4408	-2014.00
4409	-1086.70
4410	-721.60
4411	-1692.00
4412	-628.20
4413	-230.40
4414	-153.00
4415	-251.40
4416	-55.30
4417	0.00
4418	0.00
4419	0.00
4420	0.00
4421	-277.20
4422	-1355.10
4423	-2354.60
4424	-3437.60
4425	-4405.00
4426	-5416.60
4427	-6063.30
4428	-6517.00
4429	-6248.70
4430	-5731.00
4431	-3917.00
4432	-2508.30
4433	-1556.50
4434	-1216.00
4435	-1369.90
4436	-547.90
4437	-200.70
4438	-97.50
4439	-201.20
4440	-17.80
4441	0.00
4442	0.00
4443	0.00
4444	0.00
4445	0.00
4446	-242.60
4447	-509.30
4448	-809.80
4449	-1035.90
4450	-1160.90
4451	-1221.70
4452	-1259.20
4453	-1280.40
4454	-1703.60
4455	-2110.90
4456	-1980.10
4457	-1335.60
4458	-255.40
4459	-529.40
4460	-2.20
4461	0.00
4462	16800.00
4463	16800.00
4464	16800.00
4465	0.00
4466	0.00
4467	0.00
4468	0.00
4469	0.00
4470	-449.40
4471	-991.40
4472	-941.10
4473	-1017.40
4474	-1168.90
4475	-1201.30
4476	-843.70
4477	-638.90
4478	-448.60
4479	-70.20
4480	-6.90
4481	0.00
4482	0.00
4483	-217.60
4484	0.00
4485	0.00
4486	0.00
4487	0.00
4488	0.00
4489	0.00
4490	0.00
4491	0.00
4492	0.00
4493	0.00
4494	0.00
4495	0.00
4496	0.00
4497	0.00
4498	-2.90
4499	-32.50
4500	-464.90
4501	-316.30
4502	-364.50
4503	-108.70
4504	-84.80
4505	-24.30
4506	0.00
4507	-223.40
4508	0.00
4509	0.00
4510	0.00
4511	0.00
4512	0.00
4513	0.00
4514	0.00
4515	0.00
4516	0.00
4517	0.00
4518	0.00
4519	0.00
4520	-187.90
4521	-820.30
4522	-859.00
4523	-867.80
4524	-971.00
4525	-993.70
4526	-762.10
4527	-248.20
4528	-185.60
4529	-88.60
4530	-16.80
4531	-261.20
4532	0.00
4533	16800.00
4534	16800.00
4535	16800.00
4536	0.00
4537	0.00
4538	0.00
4539	0.00
4540	0.00
4541	0.00
4542	-444.10
4543	-930.60
4544	-1306.80
4545	-1458.70
4546	-1468.20
4547	-1468.20
4548	-1468.20
4549	-1619.90
4550	-1993.40
4551	-2404.60
4552	-2292.70
4553	-1520.00
4554	-500.40
4555	-739.00
4556	-205.10
4557	-42.70
4558	-2.50
4559	-58.50
4560	0.00
4561	0.00
4562	0.00
4563	0.00
4564	0.00
4565	-7.50
4566	-640.30
4567	-800.60
4568	-1401.10
4569	-1613.10
4570	-2174.60
4571	-2986.10
4572	-4243.70
4573	-5139.40
4574	-5544.80
4575	-5781.30
4576	-5514.80
4577	-5136.30
4578	-4664.20
4579	-3050.50
4580	-1791.90
4581	-1398.70
4582	-852.90
4583	-752.20
4584	-382.10
4585	-178.90
4586	-105.60
4587	-54.30
4588	-77.40
4589	-468.10
4590	-1449.00
4591	-1871.20
4592	-2786.40
4593	-4287.80
4594	-5723.70
4595	-6571.10
4596	-6961.10
4597	-7211.80
4598	-6991.50
4599	-6130.50
4600	-5329.10
4601	-4547.40
4602	-3894.00
4603	-3780.00
4604	-2588.30
4605	-2151.80
4606	-1649.20
4607	-1451.30
4608	-938.70
4609	-638.00
4610	-484.80
4611	-342.30
4612	-349.40
4613	-1111.90
4614	-2035.90
4615	-3473.00
4616	-5650.90
4617	-7269.70
4618	-8163.80
4619	-8567.30
4620	-9173.40
4621	-9377.10
4622	-9067.40
4623	-8267.90
4624	-7721.90
4625	-6866.20
4626	-6220.10
4627	-5798.20
4628	-3822.80
4629	-2913.50
4630	-2336.00
4631	-2086.10
4632	-1351.50
4633	-1007.70
4634	-651.60
4635	-354.40
4636	-256.90
4637	-336.50
4638	-1411.70
4639	-2130.00
4640	-3107.20
4641	-4207.50
4642	-6321.80
4643	-7533.20
4644	-8610.40
4645	-9391.40
4646	-9043.80
4647	-8007.10
4648	-7170.10
4649	-6516.70
4650	-6160.10
4651	-5367.30
4652	-2970.00
4653	-1763.50
4654	-1270.40
4655	-1439.30
4656	-881.50
4657	-587.00
4658	-465.60
4659	-344.80
4660	-276.90
4661	-617.30
4662	-1221.10
4663	-1173.40
4664	-1403.90
4665	-2712.00
4666	-5072.00
4667	-5421.60
4668	-5991.10
4669	-7202.40
4670	-7162.60
4671	-5466.50
4672	-4976.30
4673	-4187.30
4674	-2251.40
4675	-1936.80
4676	-739.20
4677	-149.00
4678	-62.50
4679	-178.40
4680	-39.40
4681	0.00
4682	16800.00
4683	16800.00
4684	16800.00
4685	16800.00
4686	-3.80
4687	-142.60
4688	-284.20
4689	-987.50
4690	-1561.70
4691	-1982.00
4692	-2479.70
4693	-2235.70
4694	-2484.70
4695	-3999.40
4696	-3750.00
4697	-1449.80
4698	-132.50
4699	-493.90
4700	-7.30
4701	0.00
4702	0.00
4703	0.00
4704	16800.00
4705	16800.00
4706	16800.00
4707	0.00
4708	0.00
4709	0.00
4710	-31.60
4711	-309.70
4712	-661.40
4713	-1278.00
4714	-1569.40
4715	-2000.20
4716	-2466.50
4717	-2268.90
4718	-1949.40
4719	-1728.40
4720	-2709.80
4721	-3009.80
4722	-1628.10
4723	-1138.70
4724	-169.20
4725	-12.40
4726	0.00
4727	-2.90
4728	0.00
4729	0.00
4730	0.00
4731	0.00
4732	0.00
4733	0.00
4734	-584.10
4735	-1192.90
4736	-1996.00
4737	-2629.50
4738	-3076.20
4739	-3975.60
4740	-4978.80
4741	-5722.30
4742	-6390.50
4743	-6088.20
4744	-5775.70
4745	-5448.80
4746	-5271.10
4747	-4422.90
4748	-1976.30
4749	-755.30
4750	-402.40
4751	-485.80
4752	-138.80
4753	-11.60
4754	0.00
4755	0.00
4756	0.00
4757	-357.90
4758	-1528.90
4759	-2132.60
4760	-3158.30
4761	-5033.60
4762	-7087.20
4763	-7881.80
4764	-8522.20
4765	-8918.40
4766	-8713.40
4767	-8179.30
4768	-7711.80
4769	-7018.20
4770	-6609.30
4771	-6231.60
4772	-4125.60
4773	-2927.40
4774	-2126.30
4775	-1888.60
4776	-1101.40
4777	-704.90
4778	-506.40
4779	-233.30
4780	-214.00
4781	-1402.00
4782	-3340.10
4783	-5005.60
4784	-6365.70
4785	-7951.10
4786	-9499.30
4787	-11234.90
4788	-12178.30
4789	-12133.80
4790	-11710.70
4791	-10584.00
4792	-9785.30
4793	-9312.00
4794	-8939.20
4795	-8627.30
4796	-7142.20
4797	-5574.10
4798	-4644.60
4799	-3838.50
4800	-2815.50
4801	-2134.20
4802	-1751.20
4803	-1631.80
4804	-1582.60
4805	-1839.60
4806	-3534.10
4807	-4809.80
4808	-6467.10
4809	-7912.70
4810	-10037.90
4811	-11735.00
4812	-12721.20
4813	-12480.10
4814	-11814.40
4815	-10590.50
4816	-9776.30
4817	-9124.10
4818	-8934.20
4819	-8593.40
4820	-6990.10
4821	-6049.50
4822	-5384.70
4823	-4265.20
4824	-3056.00
4825	-2210.20
4826	-1800.10
4827	-1633.60
4828	-1540.90
4829	-1683.80
4830	-2610.50
4831	-4153.90
4832	-6476.50
4833	-7589.50
4834	-8472.60
4835	-8407.50
4836	-10565.40
4837	-11373.40
4838	-10540.20
4839	-9532.20
4840	-7937.70
4841	-6265.20
4842	-4859.70
4843	-4175.40
4844	-2717.30
4845	-1830.60
4846	-1318.10
4847	-1318.30
4848	-636.30
4849	-306.30
4850	-141.40
4851	-50.70
4852	-37.80
4853	-243.20
4854	-974.10
4855	-1308.60
4856	-1746.60
4857	-2961.30
4858	-4403.60
4859	-5194.30
4860	-5013.10
4861	-4232.70
4862	-4156.80
4863	-4976.60
4864	-4714.20
4865	-4012.90
4866	-2135.60
4867	-1469.80
4868	-689.20
4869	-142.90
4870	-29.00
4871	-115.40
4872	0.00
4873	16800.00
4874	16800.00
4875	16800.00
4876	16800.00
4877	16800.00
4878	-379.60
4879	-642.60
4880	-963.20
4881	-1067.40
4882	-708.90
4883	-1027.10
4884	-1152.90
4885	-1029.80
4886	-866.30
4887	-482.90
4888	-325.40
4889	-107.10
4890	-27.40
4891	-390.60
4892	-7.20
4893	0.00
4894	0.00
4895	0.00
4896	0.00
4897	0.00
4898	0.00
4899	0.00
4900	0.00
4901	0.00
4902	-13.60
4903	-40.20
4904	-118.70
4905	-183.90
4906	-225.00
4907	-295.10
4908	-607.50
4909	-875.00
4910	-843.80
4911	-586.10
4912	-1058.30
4913	-1123.50
4914	-262.60
4915	-1013.80
4916	-96.90
4917	-5.20
4918	0.00
4919	-26.50
4920	0.00
4921	16800.00
4922	16800.00
4923	16800.00
4924	0.00
4925	0.00
4926	-336.60
4927	-646.10
4928	-948.20
4929	-1416.40
4930	-2090.60
4931	-3100.10
4932	-4546.70
4933	-5341.10
4934	-5039.20
4935	-4841.30
4936	-4341.90
4937	-2453.60
4938	-883.80
4939	-1559.20
4940	-437.70
4941	-85.40
4942	-18.20
4943	-122.00
4944	0.00
4945	0.00
4946	0.00
4947	0.00
4948	0.00
4949	0.00
4950	-292.10
4951	-311.50
4952	-444.60
4953	-585.50
4954	-805.50
4955	-1029.90
4956	-1260.80
4957	-1641.30
4958	-1783.70
4959	-1210.30
4960	-802.40
4961	-276.30
4962	-109.10
4963	-916.70
4964	-29.20
4965	0.00
4966	0.00
4967	0.00
4968	0.00
4969	0.00
4970	0.00
4971	0.00
4972	0.00
4973	0.00
4974	0.00
4975	-114.10
4976	-619.60
4977	-1369.00
4978	-1871.40
4979	-2569.80
4980	-4358.50
4981	-5526.70
4982	-6154.00
4983	-5773.70
4984	-5043.80
4985	-3703.80
4986	-2398.00
4987	-2261.00
4988	-1228.50
4989	-316.70
4990	-237.20
4991	-648.20
4992	-205.90
4993	-119.50
4994	-38.70
4995	-3.00
4996	0.00
4997	-94.70
4998	-878.80
4999	-1146.80
5000	-3141.60
5001	-5672.20
5002	-7540.60
5003	-8185.50
5004	-9701.80
5005	-10149.20
5006	-9851.20
5007	-9004.90
5008	-8115.00
5009	-7526.60
5010	-6240.10
5011	-4608.10
5012	-2528.60
5013	-2058.10
5014	-1623.40
5015	-1760.00
5016	-1140.80
5017	-585.60
5018	-373.10
5019	-271.10
5020	-228.30
5021	-483.40
5022	-1500.20
5023	-1759.90
5024	-3661.80
5025	-5681.30
5026	-7562.20
5027	-8032.10
5028	-8161.90
5029	-7693.90
5030	-7048.00
5031	-5519.10
5032	-5177.80
5033	-4298.50
5034	-3113.30
5035	-2890.60
5036	-2117.30
5037	-1549.90
5038	-1160.70
5039	-1224.40
5040	-501.70
5041	-217.40
5042	-153.10
5043	-89.90
5044	-66.90
5045	-188.60
5046	-1369.20
5047	-2225.00
5048	-3343.10
5049	-5452.60
5050	-6890.80
5051	-8386.10
5052	-9682.90
5053	-9277.80
5054	-8760.80
5055	-7754.20
5056	-7087.70
5057	-6391.70
5058	-5346.00
5059	-4267.50
5060	-2263.50
5061	-1112.10
5062	-530.70
5063	-621.10
5064	-166.70
5065	-16.50
5066	0.00
5067	16800.00
5068	16800.00
5069	-294.90
5070	-1442.70
5071	-2342.50
5072	-3449.50
5073	-4982.10
5074	-6126.40
5075	-5952.80
5076	-5304.70
5077	-4950.00
5078	-3282.50
5079	-2391.80
5080	-2503.30
5081	-1447.70
5082	-1042.60
5083	-1752.70
5084	-1030.50
5085	-387.60
5086	-266.80
5087	-405.80
5088	-157.60
5089	-48.90
5090	-4.80
5091	0.00
5092	16800.00
5093	-23.80
5094	-814.00
5095	-965.10
5096	-1244.40
5097	-1491.80
5098	-1605.50
5099	-2274.00
5100	-2920.70
5101	-3030.30
5102	-3132.40
5103	-3818.90
5104	-2458.90
5105	-1164.90
5106	-462.10
5107	-1346.90
5108	-318.80
5109	-71.80
5110	-3.10
5111	-62.40
5112	0.00
5113	16800.00
5114	16800.00
5115	16800.00
5116	16800.00
5117	0.00
5118	-139.00
5119	-409.40
5120	-632.00
5121	-576.70
5122	-964.80
5123	-1277.80
5124	-1651.70
5125	-1964.30
5126	-1884.50
5127	-1304.60
5128	-886.30
5129	-505.30
5130	-134.90
5131	-978.50
5132	-28.90
5133	0.00
5134	0.00
5135	0.00
5136	0.00
5137	0.00
5138	0.00
5139	0.00
5140	0.00
5141	0.00
5142	-343.00
5143	-959.80
5144	-1388.30
5145	-1775.30
5146	-2220.30
5147	-2825.90
5148	-2857.40
5149	-3632.40
5150	-4865.80
5151	-4954.40
5152	-4445.40
5153	-3498.30
5154	-1424.50
5155	-1360.70
5156	-277.50
5157	-20.60
5158	0.00
5159	-34.80
5160	0.00
5161	0.00
5162	0.00
5163	0.00
5164	0.00
5165	0.00
5166	0.00
5167	-116.20
5168	-611.60
5169	-1230.50
5170	-1389.30
5171	-1190.40
5172	-1535.20
5173	-1883.30
5174	-3693.80
5175	-4812.70
5176	-3849.00
5177	-2927.60
5178	-903.40
5179	-1341.50
5180	-96.20
5181	-0.30
5182	0.00
5183	-3.30
5184	0.00
5185	0.00
5186	0.00
5187	0.00
5188	0.00
5189	0.00
5190	-21.00
5191	-603.70
5192	-1232.50
5193	-1200.00
5194	-1292.60
5195	-1630.10
5196	-2189.10
5197	-2093.00
5198	-2586.10
5199	-3278.50
5200	-3185.30
5201	-1841.90
5202	-500.00
5203	-918.20
5204	-127.40
5205	-14.30
5206	0.00
5207	16800.00
5208	16800.00
5209	16800.00
5210	0.00
5211	0.00
5212	0.00
5213	0.00
5214	-616.40
5215	-1220.10
5216	-1989.90
5217	-2478.00
5218	-2766.80
5219	-3782.80
5220	-4507.70
5221	-5307.70
5222	-6010.60
5223	-5841.40
5224	-5410.00
5225	-4878.60
5226	-3850.30
5227	-2640.00
5228	-1149.40
5229	-433.40
5230	-230.70
5231	-314.70
5232	-79.70
5233	-0.20
5234	0.00
5235	0.00
5236	0.00
5237	0.00
5238	-527.20
5239	-1061.50
5240	-1756.70
5241	-3142.40
5242	-5003.60
5243	-6069.80
5244	-6925.50
5245	-7844.90
5246	-8043.40
5247	-7576.80
5248	-6983.30
5249	-5991.70
5250	-4878.60
5251	-4314.50
5252	-2940.40
5253	-2128.70
5254	-1566.70
5255	-1496.60
5256	-621.30
5257	-255.40
5258	-136.30
5259	-38.90
5260	-7.80
5261	-376.10
5262	-1455.30
5263	-2163.20
5264	-3880.10
5265	-5824.20
5266	-7431.70
5267	-9130.30
5268	-11026.90
5269	-11540.80
5270	-11150.20
5271	-10009.80
5272	-9374.50
5273	-8770.90
5274	-8182.20
5275	-8278.30
5276	-7056.90
5277	-5674.50
5278	-4519.90
5279	-3640.20
5280	-2896.80
5281	-2227.50
5282	-1823.10
5283	-1385.00
5284	-994.80
5285	-1058.10
5286	-1837.90
5287	-1607.20
5288	-1918.10
5289	-3279.70
5290	-6535.90
5291	-8880.70
5292	-10027.30
5293	-10146.70
5294	-9391.10
5295	-8339.30
5296	-7469.70
5297	-6663.00
5298	-5906.80
5299	-5545.70
5300	-3539.70
5301	-2102.70
5302	-1256.40
5303	-1318.10
5304	-671.40
5305	-373.70
5306	-175.20
5307	-45.80
5308	-1.30
5309	-336.00
5310	-1634.90
5311	-3079.10
5312	-4955.70
5313	-7057.50
5314	-9308.70
5315	-11174.00
5316	-12553.50
5317	-13123.60
5318	-12285.40
5319	-10721.40
5320	-9885.80
5321	-9100.20
5322	-8617.40
5323	-8467.20
5324	-6942.40
5325	-5968.20
5326	-4977.90
5327	-4143.30
5328	-3488.50
5329	-3436.20
5330	-3064.70
5331	-2323.10
5332	-1842.10
5333	-2122.60
5334	-4421.70
5335	-5873.00
5336	-8755.40
5337	-11059.20
5338	-13369.10
5339	-14658.30
5340	-15268.40
5341	-15984.00
5342	-15945.20
5343	-16082.10
5344	-14737.20
5345	-13317.80
5346	-11848.20
5347	-10956.60
5348	-9607.10
5349	-8898.40
5350	-7339.10
5351	-6091.00
5352	-4915.50
5353	-3797.90
5354	-3046.30
5355	-2467.10
5356	-2172.60
5357	-2082.50
5358	-3550.80
5359	-4844.50
5360	-8309.10
5361	-12084.70
5362	-14242.90
5363	-15286.20
5364	-16313.60
5365	-16669.70
5366	-15961.30
5367	-16020.40
5368	-15766.80
5369	-15209.60
5370	-14093.40
5371	-12043.60
5372	-10987.60
5373	-10706.70
5374	-8614.10
5375	-6515.80
5376	-4958.60
5377	-3921.30
5378	-3202.50
5379	-2501.00
5380	-2186.10
5381	-2154.80
5382	-4048.40
5383	-5377.10
5384	-7047.20
5385	-9122.50
5386	-9971.20
5387	-10504.70
5388	-11216.50
5389	-11585.50
5390	-10337.80
5391	-8614.80
5392	-7647.30
5393	-5861.60
5394	-3877.90
5395	-3725.50
5396	-2622.70
5397	-1625.50
5398	-1201.90
5399	-1261.00
5400	-855.00
5401	-494.30
5402	-269.90
5403	-121.90
5404	-59.40
5405	-351.20
5406	-1403.50
5407	-1315.60
5408	-1413.80
5409	-1663.20
5410	-2553.70
5411	-3413.30
5412	-4041.60
5413	-4360.10
5414	-4388.40
5415	-4093.90
5416	-4813.40
5417	-3251.30
5418	-2072.50
5419	-2663.00
5420	-1628.00
5421	-652.50
5422	-347.50
5423	-350.90
5424	-103.20
5425	-2.50
5426	0.00
5427	16800.00
5428	16800.00
5429	-16.40
5430	-1062.30
5431	-1337.20
5432	-1797.70
5433	-2370.80
5434	-3293.30
5435	-4281.60
5436	-5280.60
5437	-7169.60
5438	-8299.20
5439	-7713.10
5440	-6778.20
5441	-5914.30
5442	-4971.00
5443	-4383.60
5444	-2932.30
5445	-1988.10
5446	-1339.10
5447	-1480.80
5448	-731.80
5449	-298.70
5450	-102.30
5451	-41.20
5452	-40.00
5453	-259.00
5454	-1688.70
5455	-2190.00
5456	-4117.40
5457	-5556.90
5458	-7405.60
5459	-8925.90
5460	-9809.70
5461	-9743.20
5462	-9230.30
5463	-7711.50
5464	-6076.30
5465	-4243.80
5466	-2774.30
5467	-2965.10
5468	-1722.10
5469	-725.70
5470	-351.40
5471	-345.90
5472	-62.10
5473	0.00
5474	16800.00
5475	16800.00
5476	16800.00
5477	16800.00
5478	-861.30
5479	-1423.80
5480	-2289.40
5481	-4272.90
5482	-5980.40
5483	-8069.00
5484	-9515.70
5485	-10110.60
5486	-9724.20
5487	-8466.70
5488	-7277.60
5489	-5843.80
5490	-4420.60
5491	-4221.80
5492	-2708.10
5493	-1593.40
5494	-1071.20
5495	-1049.10
5496	-400.30
5497	-196.60
5498	-51.20
5499	-1.10
5500	0.00
5501	-38.80
5502	-1261.70
5503	-1468.20
5504	-1499.70
5505	-2759.80
5506	-4007.40
5507	-5110.20
5508	-6239.50
5509	-6891.30
5510	-8565.00
5511	-7473.80
5512	-5683.40
5513	-4273.80
5514	-2632.00
5515	-2877.70
5516	-1875.80
5517	-1061.30
5518	-591.10
5519	-950.40
5520	-275.90
5521	-88.10
5522	-2.70
5523	0.00
5524	16800.00
5525	-35.00
5526	-1212.00
5527	-1393.50
5528	-1768.40
5529	-2903.30
5530	-4176.30
5531	-5382.80
5532	-7367.40
5533	-7755.60
5534	-7800.40
5535	-7230.60
5536	-6227.10
5537	-5007.80
5538	-2689.00
5539	-2185.70
5540	-411.10
5541	-26.10
5542	-75.80
5543	-137.30
5544	-2.00
5545	0.00
5546	16800.00
5547	16800.00
5548	16800.00
5549	16800.00
5550	-366.30
5551	-1061.60
5552	-1448.00
5553	-1971.70
5554	-3848.30
5555	-5515.30
5556	-7130.80
5557	-8068.40
5558	-8105.20
5559	-7232.20
5560	-6280.10
5561	-5230.30
5562	-3530.00
5563	-2747.10
5564	-1435.30
5565	-456.60
5566	-225.00
5567	-220.90
5568	-42.90
5569	0.00
5570	0.00
5571	0.00
5572	0.00
5573	0.00
5574	-114.00
5575	-205.20
5576	-710.70
5577	-639.70
5578	-943.40
5579	-686.90
5580	-558.00
5581	-450.10
5582	-289.40
5583	-64.90
5584	-0.90
5585	0.00
5586	0.00
5587	-490.20
5588	-2.50
5589	0.00
5590	0.00
5591	0.00
5592	0.00
5593	0.00
5594	0.00
5595	0.00
5596	0.00
5597	0.00
5598	0.00
5599	-79.60
5600	-586.20
5601	-1317.60
5602	-1179.20
5603	-936.60
5604	-909.10
5605	-812.80
5606	-376.90
5607	-1.90
5608	0.00
5609	16800.00
5610	16800.00
5611	16800.00
5612	0.00
5613	0.00
5614	0.00
5615	0.00
5616	0.00
5617	0.00
5618	0.00
5619	0.00
5620	0.00
5621	0.00
5622	-22.40
5623	-413.00
5624	-639.20
5625	-823.90
5626	-1040.00
5627	-1231.90
5628	-1464.50
5629	-1553.80
5630	-1289.90
5631	-645.50
5632	-265.30
5633	-141.20
5634	-77.40
5635	-866.20
5636	-69.30
5637	-15.70
5638	0.00
5639	-70.00
5640	0.00
5641	0.00
5642	0.00
5643	0.00
5644	0.00
5645	0.00
5646	-61.60
5647	-126.90
5648	-286.50
5649	-916.70
5650	-1426.60
5651	-2663.00
5652	-3846.60
5653	-4331.90
5654	-4712.40
5655	-4338.90
5656	-3771.10
5657	-2794.70
5658	-928.70
5659	-1761.10
5660	-673.00
5661	-154.50
5662	-83.10
5663	-195.10
5664	-64.10
5665	0.00
5666	0.00
5667	0.00
5668	0.00
5669	0.00
5670	-359.90
5671	-449.60
5672	-879.70
5673	-751.10
5674	-1201.40
5675	-2169.20
5676	-3460.20
5677	-3467.20
5678	-4208.70
5679	-3687.40
5680	-3193.60
5681	-1739.80
5682	-374.30
5683	-1583.90
5684	-320.00
5685	-8.50
5686	0.00
5687	-19.10
5688	0.00
5689	0.00
5690	0.00
5691	0.00
5692	0.00
5693	0.00
5694	-297.40
5695	-1160.10
5696	-1483.40
5697	-1943.10
5698	-3600.70
5699	-4730.00
5700	-5353.90
5701	-4814.20
5702	-5234.60
5703	-5183.90
5704	-4296.00
5705	-2510.30
5706	-828.70
5707	-1444.70
5708	-750.10
5709	-169.80
5710	-68.50
5711	-156.60
5712	-2.80
5713	0.00
5714	16800.00
5715	16800.00
5716	16800.00
5717	16800.00
5718	-198.30
5719	-927.80
5720	-1448.20
5721	-1538.40
5722	-1975.30
5723	-3052.20
5724	-4000.90
5725	-4315.20
5726	-3377.50
5727	-1782.00
5728	-1987.80
5729	-915.60
5730	-198.20
5731	-628.10
5732	-191.70
5733	0.00
5734	0.00
5735	-5.50
5736	0.00
5737	0.00
5738	0.00
5739	0.00
5740	0.00
5741	0.00
5742	-146.00
5743	-843.30
5744	-1431.30
5745	-1498.40
5746	-2471.90
5747	-3239.10
5748	-3643.40
5749	-3780.10
5750	-3597.80
5751	-2987.50
5752	-2266.20
5753	-1014.60
5754	-548.30
5755	-1321.70
5756	-604.40
5757	-126.40
5758	-63.50
5759	-183.20
5760	-14.50
5761	0.00
5762	0.00
5763	0.00
5764	0.00
5765	0.00
5766	-40.20
5767	-147.90
5768	-257.60
5769	-330.90
5770	-375.10
5771	-430.90
5772	-515.90
5773	-511.30
5774	-780.60
5775	-425.00
5776	-110.60
5777	-2.40
5778	0.00
5779	-277.30
5780	0.00
5781	0.00
5782	0.00
5783	0.00
5784	0.00
5785	0.00
5786	0.00
5787	0.00
5788	0.00
5789	0.00
5790	0.00
5791	0.00
5792	-10.10
5793	-110.10
5794	-129.30
5795	-153.80
5796	-232.40
5797	-294.20
5798	-174.70
5799	0.00
5800	16800.00
5801	16800.00
5802	16800.00
5803	0.00
5804	0.00
5805	0.00
5806	0.00
5807	0.00
5808	0.00
5809	0.00
5810	0.00
5811	0.00
5812	0.00
5813	0.00
5814	0.00
5815	0.00
5816	0.00
5817	0.00
5818	0.00
5819	0.00
5820	0.00
5821	0.00
5822	0.00
5823	0.00
5824	0.00
5825	0.00
5826	0.00
5827	0.00
5828	0.00
5829	0.00
5830	0.00
5831	0.00
5832	0.00
5833	0.00
5834	0.00
5835	0.00
5836	0.00
5837	0.00
5838	0.00
5839	0.00
5840	0.00
5841	0.00
5842	0.00
5843	0.00
5844	-140.70
5845	-142.90
5846	-108.00
5847	0.00
5848	0.00
5849	0.00
5850	0.00
5851	0.00
5852	0.00
5853	0.00
5854	0.00
5855	0.00
5856	0.00
5857	0.00
5858	0.00
5859	0.00
5860	0.00
5861	0.00
5862	0.00
5863	0.00
5864	-169.80
5865	-747.40
5866	-1097.80
5867	-1327.80
5868	-1441.40
5869	-1317.90
5870	-1104.50
5871	-725.90
5872	-227.80
5873	0.00
5874	16800.00
5875	-73.90
5876	0.00
5877	0.00
5878	0.00
5879	0.00
5880	0.00
5881	0.00
5882	0.00
5883	0.00
5884	0.00
5885	0.00
5886	-2.50
5887	-385.70
5888	-1170.90
5889	-1468.20
5890	-1449.30
5891	-1599.60
5892	-1745.10
5893	-2167.40
5894	-2418.20
5895	-1665.10
5896	-983.80
5897	-175.80
5898	-9.40
5899	-311.50
5900	-7.90
5901	0.00
5902	16800.00
5903	16800.00
5904	16800.00
5905	0.00
5906	0.00
5907	0.00
5908	0.00
5909	0.00
5910	0.00
5911	-52.40
5912	-327.90
5913	-707.60
5914	-1060.20
5915	-1188.80
5916	-1281.10
5917	-1266.00
5918	-1063.90
5919	-459.60
5920	-159.20
5921	-16.70
5922	0.00
5923	-245.90
5924	0.00
5925	0.00
5926	0.00
5927	0.00
5928	0.00
5929	0.00
5930	0.00
5931	0.00
5932	0.00
5933	0.00
5934	0.00
5935	0.00
5936	0.00
5937	-21.50
5938	-398.00
5939	-1091.60
5940	-1331.10
5941	-1354.20
5942	-1371.20
5943	-965.60
5944	-509.40
5945	-33.80
5946	-2.30
5947	-307.70
5948	0.00
5949	0.00
5950	0.00
5951	0.00
5952	0.00
5953	0.00
5954	0.00
5955	0.00
5956	0.00
5957	0.00
5958	0.00
5959	0.00
5960	-199.80
5961	-1142.20
5962	-1576.40
5963	-2421.00
5964	-3378.00
5965	-3825.40
5966	-3747.20
5967	-2826.20
5968	-1909.70
5969	-588.80
5970	-54.90
5971	-350.60
5972	-48.50
5973	0.00
5974	16800.00
5975	16800.00
5976	16800.00
5977	0.00
5978	0.00
5979	0.00
5980	0.00
5981	0.00
5982	-26.70
5983	-418.90
5984	-536.80
5985	-796.70
5986	-1063.00
5987	-1218.60
5988	-1289.20
5989	-1244.40
5990	-1592.90
5991	-1373.90
5992	-531.70
5993	-67.30
5994	-9.00
5995	-352.70
5996	0.00
5997	0.00
5998	0.00
5999	0.00
6000	0.00
6001	0.00
6002	0.00
6003	0.00
6004	0.00
6005	0.00
6006	-74.20
6007	-808.60
6008	-1441.90
6009	-1659.40
6010	-2819.10
6011	-3829.90
6012	-4295.50
6013	-4535.60
6014	-4537.30
6015	-4456.90
6016	-3615.80
6017	-2114.40
6018	-990.60
6019	-1433.80
6020	-859.50
6021	-165.90
6022	-43.40
6023	-173.60
6024	-20.90
6025	0.00
6026	0.00
6027	0.00
6028	0.00
6029	0.00
6030	-546.60
6031	-1341.90
6032	-1479.60
6033	-2604.60
6034	-4509.60
6035	-5296.50
6036	-6418.80
6037	-6625.40
6038	-6740.90
6039	-6499.70
6040	-5741.70
6041	-4159.00
6042	-2808.50
6043	-2860.20
6044	-1958.40
6045	-1132.40
6046	-821.80
6047	-878.30
6048	-525.10
6049	-367.10
6050	-246.90
6051	-75.50
6052	-5.60
6053	0.00
6054	-472.10
6055	-240.60
6056	-353.90
6057	-458.90
6058	-475.60
6059	-448.80
6060	-526.00
6061	-477.30
6062	-282.50
6063	0.00
6064	0.00
6065	0.00
6066	0.00
6067	-118.00
6068	0.00
6069	16800.00
6070	16800.00
6071	16800.00
6072	0.00
6073	0.00
6074	0.00
6075	0.00
6076	0.00
6077	0.00
6078	0.00
6079	0.00
6080	0.00
6081	0.00
6082	-16.40
6083	-89.40
6084	-179.00
6085	-192.90
6086	-141.20
6087	0.00
6088	0.00
6089	0.00
6090	0.00
6091	-88.70
6092	0.00
6093	0.00
6094	0.00
6095	0.00
6096	0.00
6097	0.00
6098	0.00
6099	0.00
6100	0.00
6101	0.00
6102	-15.00
6103	-530.40
6104	-1059.00
6105	-1455.60
6106	-1524.40
6107	-2156.90
6108	-2528.00
6109	-2990.50
6110	-3169.30
6111	-2233.10
6112	-1213.00
6113	-169.50
6114	-3.20
6115	-235.40
6116	0.00
6117	0.00
6118	0.00
6119	0.00
6120	0.00
6121	0.00
6122	0.00
6123	0.00
6124	0.00
6125	0.00
6126	0.00
6127	-275.00
6128	-1191.40
6129	-1468.20
6130	-1854.10
6131	-2593.90
6132	-3010.30
6133	-3217.00
6134	-3226.90
6135	-2332.00
6136	-1254.20
6137	-376.10
6138	-61.40
6139	-330.70
6140	-79.40
6141	0.00
6142	0.00
6143	0.00
6144	0.00
6145	0.00
6146	0.00
6147	0.00
6148	0.00
6149	0.00
6150	0.00
6151	0.00
6152	0.00
6153	0.00
6154	0.00
6155	-37.20
6156	-223.00
6157	-236.40
6158	-111.60
6159	0.00
6160	16800.00
6161	16800.00
6162	16800.00
6163	-1.10
6164	0.00
6165	0.00
6166	0.00
6167	0.00
6168	0.00
6169	0.00
6170	0.00
6171	0.00
6172	0.00
6173	0.00
6174	0.00
6175	-95.80
6176	-820.40
6177	-1282.80
6178	-1057.90
6179	-1284.60
6180	-1845.00
6181	-1549.20
6182	-1164.00
6183	-476.30
6184	-53.30
6185	0.00
6186	0.00
6187	-96.00
6188	0.00
6189	0.00
6190	0.00
6191	0.00
6192	0.00
6193	0.00
6194	0.00
6195	0.00
6196	0.00
6197	0.00
6198	0.00
6199	0.00
6200	0.00
6201	0.00
6202	-0.80
6203	-95.20
6204	-355.30
6205	-213.60
6206	-118.20
6207	0.00
6208	0.00
6209	0.00
6210	0.00
6211	0.00
6212	0.00
6213	16800.00
6214	16800.00
6215	16800.00
6216	0.00
6217	0.00
6218	0.00
6219	0.00
6220	0.00
6221	0.00
6222	0.00
6223	0.00
6224	0.00
6225	0.00
6226	-18.60
6227	-53.90
6228	-91.30
6229	-76.30
6230	-21.40
6231	0.00
6232	0.00
6233	0.00
6234	0.00
6235	0.00
6236	0.00
6237	0.00
6238	0.00
6239	0.00
6240	0.00
6241	0.00
6242	0.00
6243	0.00
6244	0.00
6245	0.00
6246	0.00
6247	0.00
6248	0.00
6249	0.00
6250	0.00
6251	0.00
6252	0.00
6253	0.00
6254	0.00
6255	0.00
6256	0.00
6257	0.00
6258	0.00
6259	0.00
6260	0.00
6261	0.00
6262	0.00
6263	0.00
6264	0.00
6265	0.00
6266	0.00
6267	0.00
6268	0.00
6269	0.00
6270	0.00
6271	0.00
6272	0.00
6273	0.00
6274	0.00
6275	0.00
6276	-9.60
6277	-43.90
6278	-32.60
6279	0.00
6280	0.00
6281	16800.00
6282	16800.00
6283	16800.00
6284	0.00
6285	0.00
6286	0.00
6287	0.00
6288	0.00
6289	0.00
6290	0.00
6291	0.00
6292	0.00
6293	0.00
6294	0.00
6295	0.00
6296	0.00
6297	0.00
6298	0.00
6299	0.00
6300	0.00
6301	-1.10
6302	0.00
6303	0.00
6304	0.00
6305	0.00
6306	0.00
6307	0.00
6308	0.00
6309	0.00
6310	0.00
6311	0.00
6312	0.00
6313	0.00
6314	0.00
6315	0.00
6316	0.00
6317	0.00
6318	0.00
6319	0.00
6320	0.00
6321	0.00
6322	0.00
6323	0.00
6324	0.00
6325	0.00
6326	0.00
6327	0.00
6328	0.00
6329	0.00
6330	0.00
6331	0.00
6332	0.00
6333	0.00
6334	16800.00
6335	16800.00
6336	16800.00
6337	0.00
6338	0.00
6339	0.00
6340	0.00
6341	0.00
6342	0.00
6343	0.00
6344	0.00
6345	0.00
6346	0.00
6347	0.00
6348	0.00
6349	0.00
6350	0.00
6351	0.00
6352	0.00
6353	0.00
6354	0.00
6355	0.00
6356	0.00
6357	0.00
6358	0.00
6359	0.00
6360	0.00
6361	0.00
6362	0.00
6363	0.00
6364	0.00
6365	0.00
6366	0.00
6367	16800.00
6368	16800.00
6369	16800.00
6370	0.00
6371	0.00
6372	0.00
6373	0.00
6374	0.00
6375	0.00
6376	0.00
6377	0.00
6378	0.00
6379	0.00
6380	0.00
6381	16800.00
6382	16800.00
6383	16800.00
6384	0.00
6385	0.00
6386	0.00
6387	0.00
6388	0.00
6389	0.00
6390	0.00
6391	0.00
6392	0.00
6393	0.00
6394	0.00
6395	16800.00
6396	-4.60
6397	-15.20
6398	0.00
6399	0.00
6400	0.00
6401	0.00
6402	0.00
6403	16800.00
6404	16800.00
6405	16800.00
6406	0.00
6407	0.00
6408	0.00
6409	0.00
6410	0.00
6411	0.00
6412	0.00
6413	0.00
6414	0.00
6415	0.00
6416	0.00
6417	0.00
6418	16800.00
6419	16800.00
6420	16800.00
6421	0.00
6422	0.00
6423	0.00
6424	0.00
6425	0.00
6426	0.00
6427	0.00
6428	0.00
6429	0.00
6430	0.00
6431	0.00
6432	0.00
6433	0.00
6434	0.00
6435	0.00
6436	0.00
6437	0.00
6438	0.00
6439	16800.00
6440	16800.00
6441	16800.00
6442	16800.00
6443	0.00
6444	0.00
6445	0.00
6446	0.00
6447	0.00
6448	0.00
6449	0.00
6450	0.00
6451	0.00
6452	0.00
6453	0.00
6454	0.00
6455	0.00
6456	0.00
6457	0.00
6458	0.00
6459	0.00
6460	0.00
6461	0.00
6462	0.00
6463	16800.00
6464	16800.00
6465	16800.00
6466	16800.00
6467	0.00
6468	0.00
6469	0.00
6470	0.00
6471	0.00
6472	0.00
6473	0.00
6474	0.00
6475	0.00
6476	0.00
6477	0.00
6478	0.00
6479	0.00
6480	0.00
6481	0.00
6482	0.00
6483	0.00
6484	0.00
6485	0.00
6486	0.00
6487	0.00
6488	0.00
6489	0.00
6490	0.00
6491	0.00
6492	0.00
6493	0.00
6494	0.00
6495	0.00
6496	0.00
6497	0.00
6498	0.00
6499	0.00
6500	16800.00
6501	16800.00
6502	16800.00
6503	0.00
6504	0.00
6505	0.00
6506	0.00
6507	0.00
6508	0.00
6509	0.00
6510	0.00
6511	0.00
6512	0.00
6513	0.00
6514	0.00
6515	0.00
6516	0.00
6517	0.00
6518	0.00
6519	0.00
6520	0.00
6521	0.00
6522	0.00
6523	0.00
6524	0.00
6525	0.00
6526	0.00
6527	0.00
6528	0.00
6529	0.00
6530	0.00
6531	0.00
6532	16800.00
6533	16800.00
6534	16800.00
6535	0.00
6536	0.00
6537	0.00
6538	0.00
6539	0.00
6540	0.00
6541	0.00
6542	0.00
6543	0.00
6544	0.00
6545	0.00
6546	0.00
6547	0.00
6548	0.00
6549	0.00
6550	0.00
6551	0.00
6552	0.00
6553	0.00
6554	0.00
6555	0.00
6556	0.00
6557	0.00
6558	0.00
6559	0.00
6560	0.00
6561	0.00
6562	0.00
6563	0.00
6564	0.00
6565	0.00
6566	0.00
6567	0.00
6568	0.00
6569	0.00
6570	0.00
6571	16800.00
6572	16800.00
6573	16800.00
6574	0.00
6575	0.00
6576	0.00
6577	0.00
6578	0.00
6579	0.00
6580	0.00
6581	0.00
6582	0.00
6583	0.00
6584	0.00
6585	0.00
6586	0.00
6587	0.00
6588	0.00
6589	0.00
6590	0.00
6591	0.00
6592	0.00
6593	0.00
6594	0.00
6595	0.00
6596	0.00
6597	0.00
6598	0.00
6599	0.00
6600	0.00
6601	0.00
6602	0.00
6603	0.00
6604	0.00
6605	0.00
6606	0.00
6607	0.00
6608	0.00
6609	0.00
6610	0.00
6611	0.00
6612	0.00
6613	0.00
6614	0.00
6615	0.00
6616	0.00
6617	0.00
6618	0.00
6619	16800.00
6620	16800.00
6621	16800.00
6622	0.00
6623	0.00
6624	0.00
6625	0.00
6626	0.00
6627	0.00
6628	0.00
6629	0.00
6630	0.00
6631	0.00
6632	0.00
6633	-53.10
6634	-70.10
6635	-274.20
6636	-553.30
6637	-510.20
6638	-220.00
6639	-4.00
6640	0.00
6641	0.00
6642	0.00
6643	0.00
6644	0.00
6645	0.00
6646	0.00
6647	0.00
6648	0.00
6649	0.00
6650	0.00
6651	0.00
6652	0.00
6653	0.00
6654	0.00
6655	0.00
6656	0.00
6657	0.00
6658	0.00
6659	0.00
6660	0.00
6661	16800.00
6662	16800.00
6663	16800.00
6664	0.00
6665	0.00
6666	0.00
6667	0.00
6668	0.00
6669	0.00
6670	0.00
6671	0.00
6672	0.00
6673	0.00
6674	0.00
6675	0.00
6676	0.00
6677	0.00
6678	0.00
6679	0.00
6680	16800.00
6681	16800.00
6682	16800.00
6683	16800.00
6684	0.00
6685	0.00
6686	0.00
6687	0.00
6688	0.00
6689	0.00
6690	0.00
6691	0.00
6692	0.00
6693	16800.00
6694	16800.00
6695	16800.00
6696	16800.00
6697	0.00
6698	0.00
6699	0.00
6700	0.00
6701	0.00
6702	0.00
6703	0.00
6704	0.00
6705	0.00
6706	0.00
6707	16800.00
6708	16800.00
6709	16800.00
6710	16800.00
6711	0.00
6712	0.00
6713	0.00
6714	0.00
6715	0.00
6716	0.00
6717	0.00
6718	16800.00
6719	16800.00
6720	16800.00
6721	0.00
6722	0.00
6723	0.00
6724	0.00
6725	0.00
6726	0.00
6727	0.00
6728	0.00
6729	16800.00
6730	16800.00
6731	16800.00
6732	16800.00
6733	0.00
6734	0.00
6735	0.00
6736	0.00
6737	0.00
6738	0.00
6739	0.00
6740	0.00
6741	0.00
6742	0.00
6743	0.00
6744	0.00
6745	0.00
6746	0.00
6747	0.00
6748	0.00
6749	0.00
6750	16800.00
6751	16800.00
6752	16800.00
6753	16800.00
6754	16800.00
6755	0.00
6756	0.00
6757	0.00
6758	0.00
6759	0.00
6760	0.00
6761	0.00
6762	0.00
6763	0.00
6764	0.00
6765	0.00
6766	0.00
6767	0.00
6768	0.00
6769	0.00
6770	0.00
6771	0.00
6772	0.00
6773	0.00
6774	0.00
6775	16800.00
6776	16800.00
6777	16800.00
6778	16800.00
6779	16800.00
6780	0.00
6781	0.00
6782	0.00
6783	0.00
6784	0.00
6785	0.00
6786	0.00
6787	0.00
6788	0.00
6789	0.00
6790	0.00
6791	0.00
6792	0.00
6793	0.00
6794	0.00
6795	0.00
6796	0.00
6797	0.00
6798	16800.00
6799	16800.00
6800	16800.00
6801	16800.00
6802	16800.00
6803	0.00
6804	0.00
6805	0.00
6806	0.00
6807	0.00
6808	0.00
6809	0.00
6810	0.00
6811	16800.00
6812	16800.00
6813	16800.00
6814	16800.00
6815	0.00
6816	0.00
6817	0.00
6818	0.00
6819	0.00
6820	0.00
6821	0.00
6822	0.00
6823	0.00
6824	0.00
6825	0.00
6826	0.00
6827	0.00
6828	16800.00
6829	16800.00
6830	16800.00
6831	0.00
6832	0.00
6833	0.00
6834	0.00
6835	0.00
6836	0.00
6837	0.00
6838	0.00
6839	16800.00
6840	16800.00
6841	16800.00
6842	0.00
6843	0.00
6844	0.00
6845	0.00
6846	0.00
6847	0.00
6848	0.00
6849	0.00
6850	0.00
6851	0.00
6852	16800.00
6853	16800.00
6854	16800.00
6855	0.00
6856	0.00
6857	0.00
6858	0.00
6859	0.00
6860	0.00
6861	0.00
6862	0.00
6863	0.00
6864	0.00
6865	0.00
6866	0.00
6867	0.00
6868	0.00
6869	0.00
6870	16800.00
6871	16800.00
6872	16800.00
6873	16800.00
6874	16800.00
6875	0.00
6876	0.00
6877	0.00
6878	0.00
6879	0.00
6880	0.00
6881	0.00
6882	0.00
6883	0.00
6884	0.00
6885	0.00
6886	0.00
6887	0.00
6888	0.00
6889	0.00
6890	0.00
6891	0.00
6892	0.00
6893	0.00
6894	0.00
6895	16800.00
6896	16800.00
6897	16800.00
6898	16800.00
6899	0.00
6900	0.00
6901	0.00
6902	0.00
6903	0.00
6904	0.00
6905	0.00
6906	0.00
6907	0.00
6908	0.00
6909	0.00
6910	0.00
6911	0.00
6912	0.00
6913	0.00
6914	0.00
6915	0.00
6916	0.00
6917	0.00
6918	0.00
6919	16800.00
6920	16800.00
6921	16800.00
6922	16800.00
6923	0.00
6924	0.00
6925	0.00
6926	0.00
6927	0.00
6928	0.00
6929	0.00
6930	0.00
6931	0.00
6932	0.00
6933	0.00
6934	0.00
6935	0.00
6936	0.00
6937	0.00
6938	0.00
6939	0.00
6940	0.00
6941	0.00
6942	0.00
6943	16800.00
6944	16800.00
6945	16800.00
6946	0.00
6947	0.00
6948	0.00
6949	0.00
6950	0.00
6951	0.00
6952	0.00
6953	0.00
6954	0.00
6955	0.00
6956	0.00
6957	0.00
6958	0.00
6959	0.00
6960	0.00
6961	0.00
6962	0.00
6963	0.00
6964	0.00
6965	0.00
6966	0.00
6967	16800.00
6968	16800.00
6969	16800.00
6970	16800.00
6971	0.00
6972	0.00
6973	0.00
6974	0.00
6975	0.00
6976	0.00
6977	0.00
6978	0.00
6979	0.00
6980	0.00
6981	0.00
6982	0.00
6983	0.00
6984	0.00
6985	0.00
6986	0.00
6987	0.00
6988	0.00
6989	0.00
6990	16800.00
6991	16800.00
6992	16800.00
6993	16800.00
6994	16800.00
6995	0.00
6996	0.00
6997	0.00
6998	0.00
6999	0.00
7000	0.00
7001	0.00
7002	0.00
7003	0.00
7004	0.00
7005	16800.00
7006	16800.00
7007	16800.00
7008	0.00
7009	0.00
7010	0.00
7011	0.00
7012	0.00
7013	0.00
7014	0.00
7015	0.00
7016	0.00
7017	16800.00
7018	16800.00
7019	16800.00
7020	16800.00
7021	0.00
7022	0.00
7023	0.00
7024	0.00
7025	0.00
7026	0.00
7027	0.00
7028	0.00
7029	0.00
7030	16800.00
7031	16800.00
7032	16800.00
7033	0.00
7034	0.00
7035	0.00
7036	0.00
7037	0.00
7038	0.00
7039	0.00
7040	16800.00
7041	16800.00
7042	16800.00
7043	16800.00
7044	0.00
7045	0.00
7046	0.00
7047	0.00
7048	0.00
7049	0.00
7050	0.00
7051	0.00
7052	0.00
7053	16800.00
7054	16800.00
7055	16800.00
7056	0.00
7057	0.00
7058	0.00
7059	0.00
7060	0.00
7061	0.00
7062	0.00
7063	0.00
7064	0.00
7065	0.00
7066	16800.00
7067	16800.00
7068	16800.00
7069	0.00
7070	0.00
7071	0.00
7072	0.00
7073	0.00
7074	0.00
7075	0.00
7076	0.00
7077	0.00
7078	16800.00
7079	16800.00
7080	16800.00
7081	0.00
7082	0.00
7083	0.00
7084	0.00
7085	0.00
7086	0.00
7087	0.00
7088	0.00
7089	0.00
7090	0.00
7091	0.00
7092	0.00
7093	0.00
7094	0.00
7095	16800.00
7096	16800.00
7097	16800.00
7098	0.00
7099	0.00
7100	0.00
7101	0.00
7102	0.00
7103	0.00
7104	0.00
7105	0.00
7106	0.00
7107	0.00
7108	0.00
7109	0.00
7110	0.00
7111	0.00
7112	16800.00
7113	16800.00
7114	16800.00
7115	0.00
7116	0.00
7117	0.00
7118	0.00
7119	0.00
7120	0.00
7121	0.00
7122	0.00
7123	0.00
7124	0.00
7125	0.00
7126	0.00
7127	0.00
7128	0.00
7129	0.00
7130	0.00
7131	0.00
7132	0.00
7133	0.00
7134	16800.00
7135	16800.00
7136	16800.00
7137	16800.00
7138	0.00
7139	0.00
7140	0.00
7141	0.00
7142	0.00
7143	0.00
7144	0.00
7145	0.00
7146	0.00
7147	0.00
7148	0.00
7149	0.00
7150	0.00
7151	0.00
7152	16800.00
7153	16800.00
7154	16800.00
7155	0.00
7156	0.00
7157	0.00
7158	0.00
7159	0.00
7160	0.00
7161	0.00
7162	0.00
7163	16800.00
7164	16800.00
7165	16800.00
7166	16800.00
7167	0.00
7168	0.00
7169	0.00
7170	0.00
7171	0.00
7172	0.00
7173	0.00
7174	16800.00
7175	16800.00
7176	16800.00
7177	0.00
7178	0.00
7179	0.00
7180	0.00
7181	0.00
7182	0.00
7183	0.00
7184	16800.00
7185	16800.00
7186	16800.00
7187	16800.00
7188	16800.00
7189	0.00
7190	0.00
7191	0.00
7192	0.00
7193	16800.00
7194	16800.00
7195	16800.00
7196	16800.00
7197	0.00
7198	0.00
7199	0.00
7200	0.00
7201	0.00
7202	0.00
7203	0.00
7204	0.00
7205	0.00
7206	0.00
7207	16800.00
7208	16800.00
7209	16800.00
7210	16800.00
7211	0.00
7212	0.00
7213	0.00
7214	0.00
7215	0.00
7216	0.00
7217	0.00
7218	0.00
7219	0.00
7220	16800.00
7221	16800.00
7222	16800.00
7223	16800.00
7224	0.00
7225	0.00
7226	0.00
7227	0.00
7228	0.00
7229	0.00
7230	0.00
7231	0.00
7232	0.00
7233	0.00
7234	16800.00
7235	16800.00
7236	16800.00
7237	16800.00
7238	0.00
7239	0.00
7240	0.00
7241	0.00
7242	0.00
7243	0.00
7244	0.00
7245	0.00
7246	0.00
7247	0.00
7248	0.00
7249	16800.00
7250	16800.00
7251	16800.00
7252	0.00
7253	0.00
7254	0.00
7255	0.00
7256	0.00
7257	16800.00
7258	16800.00
7259	16800.00
7260	16800.00
7261	0.00
7262	0.00
7263	0.00
7264	0.00
7265	16800.00
7266	16800.00
7267	16800.00
7268	16800.00
7269	16800.00
7270	16800.00
7271	0.00
7272	0.00
7273	0.00
7274	0.00
7275	0.00
7276	0.00
7277	0.00
7278	0.00
7279	16800.00
7280	16800.00
7281	16800.00
7282	16800.00
7283	16800.00
7284	16800.00
7285	0.00
7286	0.00
7287	0.00
7288	0.00
7289	0.00
7290	16800.00
7291	16800.00
7292	16800.00
7293	16800.00
7294	16800.00
7295	16800.00
7296	0.00
7297	0.00
7298	0.00
7299	0.00
7300	0.00
7301	0.00
7302	0.00
7303	0.00
7304	0.00
7305	16800.00
7306	16800.00
7307	16800.00
7308	16800.00
7309	0.00
7310	0.00
7311	0.00
7312	0.00
7313	0.00
7314	0.00
7315	16800.00
7316	16800.00
7317	16800.00
7318	16800.00
7319	16800.00
7320	0.00
7321	0.00
7322	0.00
7323	0.00
7324	0.00
7325	0.00
7326	0.00
7327	0.00
7328	0.00
7329	16800.00
7330	16800.00
7331	16800.00
7332	16800.00
7333	0.00
7334	0.00
7335	0.00
7336	0.00
7337	0.00
7338	0.00
7339	0.00
7340	0.00
7341	16800.00
7342	16800.00
7343	16800.00
7344	16800.00
7345	0.00
7346	0.00
7347	0.00
7348	0.00
7349	0.00
7350	0.00
7351	0.00
7352	0.00
7353	16800.00
7354	16800.00
7355	16800.00
7356	16800.00
7357	0.00
7358	0.00
7359	0.00
7360	0.00
7361	0.00
7362	0.00
7363	0.00
7364	0.00
7365	16800.00
7366	16800.00
7367	16800.00
7368	0.00
7369	0.00
7370	0.00
7371	0.00
7372	0.00
7373	0.00
7374	0.00
7375	0.00
7376	0.00
7377	16800.00
7378	16800.00
7379	16800.00
7380	16800.00
7381	0.00
7382	0.00
7383	0.00
7384	0.00
7385	0.00
7386	0.00
7387	0.00
7388	16800.00
7389	16800.00
7390	16800.00
7391	16800.00
7392	0.00
7393	0.00
7394	0.00
7395	0.00
7396	0.00
7397	0.00
7398	0.00
7399	0.00
7400	0.00
7401	16800.00
7402	16800.00
7403	16800.00
7404	16800.00
7405	0.00
7406	0.00
7407	0.00
7408	0.00
7409	0.00
7410	0.00
7411	0.00
7412	0.00
7413	0.00
7414	0.00
7415	0.00
7416	0.00
7417	0.00
7418	0.00
7419	0.00
7420	0.00
7421	16800.00
7422	16800.00
7423	16800.00
7424	16800.00
7425	16800.00
7426	0.00
7427	0.00
7428	0.00
7429	0.00
7430	0.00
7431	16800.00
7432	16800.00
7433	16800.00
7434	16800.00
7435	16800.00
7436	0.00
7437	0.00
7438	0.00
7439	0.00
7440	0.00
7441	0.00
7442	0.00
7443	0.00
7444	0.00
7445	0.00
7446	16800.00
7447	16800.00
7448	16800.00
7449	16800.00
7450	16800.00
7451	16800.00
7452	0.00
7453	0.00
7454	0.00
7455	0.00
7456	0.00
7457	0.00
7458	16800.00
7459	16800.00
7460	16800.00
7461	16800.00
7462	16800.00
7463	0.00
7464	0.00
7465	0.00
7466	0.00
7467	0.00
7468	0.00
7469	0.00
7470	0.00
7471	0.00
7472	16800.00
7473	16800.00
7474	16800.00
7475	16800.00
7476	16800.00
7477	0.00
7478	0.00
7479	0.00
7480	0.00
7481	0.00
7482	0.00
7483	0.00
7484	0.00
7485	16800.00
7486	16800.00
7487	16800.00
7488	16800.00
7489	0.00
7490	0.00
7491	0.00
7492	0.00
7493	0.00
7494	0.00
7495	0.00
7496	0.00
7497	0.00
7498	16800.00
7499	16800.00
7500	16800.00
7501	16800.00
7502	0.00
7503	0.00
7504	0.00
7505	0.00
7506	0.00
7507	0.00
7508	16800.00
7509	16800.00
7510	16800.00
7511	16800.00
7512	0.00
7513	0.00
7514	0.00
7515	0.00
7516	0.00
7517	0.00
7518	0.00
7519	0.00
7520	16800.00
7521	16800.00
7522	16800.00
7523	16800.00
7524	0.00
7525	0.00
7526	0.00
7527	0.00
7528	0.00
7529	0.00
7530	0.00
7531	16800.00
7532	16800.00
7533	16800.00
7534	16800.00
7535	0.00
7536	0.00
7537	0.00
7538	0.00
7539	0.00
7540	0.00
7541	0.00
7542	0.00
7543	16800.00
7544	16800.00
7545	16800.00
7546	16800.00
7547	16800.00
7548	0.00
7549	0.00
7550	0.00
7551	0.00
7552	0.00
7553	0.00
7554	0.00
7555	0.00
7556	0.00
7557	0.00
7558	0.00
7559	16800.00
7560	16800.00
7561	16800.00
7562	0.00
7563	0.00
7564	0.00
7565	0.00
7566	0.00
7567	0.00
7568	0.00
7569	0.00
7570	16800.00
7571	16800.00
7572	16800.00
7573	0.00
7574	0.00
7575	0.00
7576	0.00
7577	0.00
7578	0.00
7579	0.00
7580	0.00
7581	0.00
7582	16800.00
7583	16800.00
7584	16800.00
7585	0.00
7586	0.00
7587	0.00
7588	0.00
7589	0.00
7590	0.00
7591	0.00
7592	16800.00
7593	16800.00
7594	16800.00
7595	16800.00
7596	16800.00
7597	0.00
7598	0.00
7599	0.00
7600	0.00
7601	0.00
7602	0.00
7603	0.00
7604	16800.00
7605	16800.00
7606	16800.00
7607	16800.00
7608	0.00
7609	0.00
7610	0.00
7611	0.00
7612	0.00
7613	0.00
7614	0.00
7615	16800.00
7616	16800.00
7617	16800.00
7618	16800.00
7619	16800.00
7620	16800.00
7621	0.00
7622	0.00
7623	0.00
7624	0.00
7625	0.00
7626	16800.00
7627	16800.00
7628	16800.00
7629	16800.00
7630	0.00
7631	0.00
7632	0.00
7633	0.00
7634	0.00
7635	0.00
7636	0.00
7637	0.00
7638	0.00
7639	16800.00
7640	16800.00
7641	16800.00
7642	16800.00
7643	16800.00
7644	16800.00
7645	0.00
7646	0.00
7647	0.00
7648	0.00
7649	0.00
7650	0.00
7651	16800.00
7652	16800.00
7653	16800.00
7654	16800.00
7655	16800.00
7656	0.00
7657	0.00
7658	0.00
7659	0.00
7660	0.00
7661	0.00
7662	0.00
7663	0.00
7664	0.00
7665	0.00
7666	0.00
7667	16800.00
7668	16800.00
7669	16800.00
7670	16800.00
7671	0.00
7672	0.00
7673	0.00
7674	0.00
7675	0.00
7676	0.00
7677	0.00
7678	0.00
7679	0.00
7680	0.00
7681	0.00
7682	0.00
7683	16800.00
7684	16800.00
7685	16800.00
7686	16800.00
7687	16800.00
7688	0.00
7689	0.00
7690	0.00
7691	0.00
7692	0.00
7693	0.00
7694	0.00
7695	0.00
7696	0.00
7697	16800.00
7698	16800.00
7699	16800.00
7700	16800.00
7701	16800.00
7702	0.00
7703	0.00
7704	0.00
7705	0.00
7706	0.00
7707	0.00
7708	0.00
7709	0.00
7710	16800.00
7711	16800.00
7712	16800.00
7713	16800.00
7714	0.00
7715	0.00
7716	16800.00
7717	16800.00
7718	16800.00
7719	16800.00
7720	16800.00
7721	16800.00
7722	0.00
7723	0.00
7724	0.00
7725	16800.00
7726	16800.00
7727	16800.00
7728	16800.00
7729	0.00
7730	0.00
7731	0.00
7732	0.00
7733	0.00
7734	0.00
7735	16800.00
7736	16800.00
7737	16800.00
7738	16800.00
7739	16800.00
7740	16800.00
7741	0.00
7742	0.00
7743	16800.00
7744	16800.00
7745	16800.00
7746	16800.00
7747	16800.00
7748	16800.00
7749	16800.00
7750	0.00
7751	0.00
7752	0.00
7753	0.00
7754	0.00
7755	0.00
7756	0.00
7757	0.00
7758	16800.00
7759	16800.00
7760	16800.00
7761	16800.00
7762	16800.00
7763	0.00
7764	0.00
7765	16800.00
7766	16800.00
7767	16800.00
7768	16800.00
7769	16800.00
7770	0.00
7771	0.00
7772	0.00
7773	16800.00
7774	16800.00
7775	16800.00
7776	16800.00
7777	16800.00
7778	0.00
7779	0.00
7780	0.00
7781	0.00
7782	0.00
7783	16800.00
7784	16800.00
7785	16800.00
7786	16800.00
7787	0.00
7788	0.00
7789	16800.00
7790	16800.00
7791	16800.00
7792	16800.00
7793	16800.00
7794	16800.00
7795	0.00
7796	0.00
7797	16800.00
7798	16800.00
7799	16800.00
7800	16800.00
7801	16800.00
7802	0.00
7803	0.00
7804	0.00
7805	0.00
7806	0.00
7807	16800.00
7808	16800.00
7809	16800.00
7810	16800.00
7811	16800.00
7812	16800.00
7813	0.00
7814	0.00
7815	16800.00
7816	16800.00
7817	16800.00
7818	16800.00
7819	16800.00
7820	0.00
7821	0.00
7822	16800.00
7823	16800.00
7824	16800.00
7825	16800.00
7826	16800.00
7827	16800.00
7828	0.00
7829	0.00
7830	0.00
7831	16800.00
7832	16800.00
7833	16800.00
7834	16800.00
7835	16800.00
7836	16800.00
7837	0.00
7838	0.00
7839	16800.00
7840	16800.00
7841	16800.00
7842	16800.00
7843	0.00
7844	0.00
7845	16800.00
7846	16800.00
7847	16800.00
7848	16800.00
7849	16800.00
7850	16800.00
7851	0.00
7852	0.00
7853	0.00
7854	0.00
7855	16800.00
7856	16800.00
7857	16800.00
7858	16800.00
7859	16800.00
7860	16800.00
7861	0.00
7862	0.00
7863	0.00
7864	0.00
7865	0.00
7866	16800.00
7867	16800.00
7868	16800.00
7869	16800.00
7870	16800.00
7871	0.00
7872	0.00
7873	0.00
7874	0.00
7875	0.00
7876	0.00
7877	0.00
7878	0.00
7879	16800.00
7880	16800.00
7881	16800.00
7882	16800.00
7883	16800.00
7884	16800.00
7885	0.00
7886	0.00
7887	0.00
7888	0.00
7889	0.00
7890	16800.00
7891	16800.00
7892	16800.00
7893	16800.00
7894	16800.00
7895	0.00
7896	0.00
7897	0.00
7898	0.00
7899	0.00
7900	0.00
7901	0.00
7902	16800.00
7903	16800.00
7904	16800.00
7905	16800.00
7906	16800.00
7907	0.00
7908	0.00
7909	16800.00
7910	16800.00
7911	16800.00
7912	16800.00
7913	16800.00
7914	16800.00
7915	16800.00
7916	0.00
7917	0.00
7918	0.00
7919	16800.00
7920	16800.00
7921	16800.00
7922	0.00
7923	0.00
7924	0.00
7925	0.00
7926	0.00
7927	16800.00
7928	16800.00
7929	16800.00
7930	16800.00
7931	16800.00
7932	0.00
7933	0.00
7934	16800.00
7935	16800.00
7936	16800.00
7937	16800.00
7938	0.00
7939	0.00
7940	16800.00
7941	16800.00
7942	16800.00
7943	16800.00
7944	16800.00
7945	0.00
7946	0.00
7947	0.00
7948	0.00
7949	0.00
7950	16800.00
7951	16800.00
7952	16800.00
7953	16800.00
7954	16800.00
7955	0.00
7956	0.00
7957	16800.00
7958	16800.00
7959	16800.00
7960	16800.00
7961	0.00
7962	0.00
7963	16800.00
7964	16800.00
7965	16800.00
7966	16800.00
7967	16800.00
7968	16800.00
7969	0.00
7970	0.00
7971	16800.00
7972	16800.00
7973	16800.00
7974	16800.00
7975	16800.00
7976	16800.00
7977	0.00
7978	0.00
7979	16800.00
7980	16800.00
7981	16800.00
7982	16800.00
7983	0.00
7984	0.00
7985	16800.00
7986	16800.00
7987	16800.00
7988	16800.00
7989	0.00
7990	0.00
7991	16800.00
7992	16800.00
7993	16800.00
7994	16800.00
7995	16800.00
7996	0.00
7997	0.00
7998	16800.00
7999	16800.00
8000	16800.00
8001	16800.00
8002	16800.00
8003	16800.00
8004	0.00
8005	0.00
8006	16800.00
8007	16800.00
8008	16800.00
8009	16800.00
8010	16800.00
8011	16800.00
8012	0.00
8013	0.00
8014	16800.00
8015	16800.00
8016	16800.00
8017	16800.00
8018	0.00
8019	0.00
8020	16800.00
8021	16800.00
8022	16800.00
8023	16800.00
8024	16800.00
8025	16800.00
8026	0.00
8027	0.00
8028	16800.00
8029	16800.00
8030	16800.00
8031	16800.00
8032	16800.00
8033	0.00
8034	0.00
8035	16800.00
8036	16800.00
8037	16800.00
8038	16800.00
8039	16800.00
8040	0.00
8041	0.00
8042	0.00
8043	0.00
8044	0.00
8045	0.00
8046	0.00
8047	0.00
8048	16800.00
8049	16800.00
8050	16800.00
8051	16800.00
8052	16800.00
8053	0.00
8054	0.00
8055	0.00
8056	16800.00
8057	16800.00
8058	16800.00
8059	16800.00
8060	16800.00
8061	0.00
8062	0.00
8063	0.00
8064	0.00
8065	0.00
8066	0.00
8067	0.00
8068	0.00
8069	0.00
8070	16800.00
8071	16800.00
8072	16800.00
8073	16800.00
8074	0.00
8075	0.00
8076	0.00
8077	16800.00
8078	16800.00
8079	16800.00
8080	16800.00
8081	0.00
8082	0.00
8083	0.00
8084	0.00
8085	16800.00
8086	16800.00
8087	16800.00
8088	16800.00
8089	0.00
8090	0.00
8091	0.00
8092	0.00
8093	0.00
8094	0.00
8095	16800.00
8096	16800.00
8097	16800.00
8098	16800.00
8099	16800.00
8100	0.00
8101	0.00
8102	0.00
8103	0.00
8104	0.00
8105	0.00
8106	16800.00
8107	16800.00
8108	16800.00
8109	16800.00
8110	16800.00
8111	0.00
8112	0.00
8113	0.00
8114	0.00
8115	0.00
8116	0.00
8117	0.00
8118	0.00
8119	16800.00
8120	16800.00
8121	16800.00
8122	16800.00
8123	16800.00
8124	0.00
8125	0.00
8126	0.00
8127	0.00
8128	16800.00
8129	16800.00
8130	16800.00
8131	16800.00
8132	16800.00
8133	0.00
8134	0.00
8135	0.00
8136	0.00
8137	0.00
8138	0.00
8139	0.00
8140	0.00
8141	0.00
8142	0.00
8143	16800.00
8144	16800.00
8145	16800.00
8146	16800.00
8147	16800.00
8148	0.00
8149	0.00
8150	0.00
8151	0.00
8152	0.00
8153	0.00
8154	0.00
8155	16800.00
8156	16800.00
8157	16800.00
8158	16800.00
8159	16800.00
8160	0.00
8161	0.00
8162	0.00
8163	0.00
8164	0.00
8165	0.00
8166	0.00
8167	0.00
8168	0.00
8169	0.00
8170	0.00
8171	16800.00
8172	16800.00
8173	16800.00
8174	16800.00
8175	0.00
8176	0.00
8177	0.00
8178	0.00
8179	0.00
8180	0.00
8181	0.00
8182	16800.00
8183	16800.00
8184	16800.00
8185	0.00
8186	0.00
8187	0.00
8188	0.00
8189	0.00
8190	0.00
8191	0.00
8192	16800.00
8193	16800.00
8194	16800.00
8195	16800.00
8196	0.00
8197	0.00
8198	0.00
8199	0.00
8200	0.00
8201	16800.00
8202	16800.00
8203	16800.00
8204	16800.00
8205	16800.00
8206	16800.00
8207	0.00
8208	0.00
8209	0.00
8210	0.00
8211	0.00
8212	0.00
8213	0.00
8214	16800.00
8215	16800.00
8216	16800.00
8217	16800.00
8218	16800.00
8219	16800.00
8220	16800.00
8221	0.00
8222	0.00
8223	16800.00
8224	16800.00
8225	16800.00
8226	16800.00
8227	0.00
8228	0.00
8229	16800.00
8230	16800.00
8231	16800.00
8232	16800.00
8233	16800.00
8234	16800.00
8235	0.00
8236	0.00
8237	0.00
8238	0.00
8239	16800.00
8240	16800.00
8241	16800.00
8242	16800.00
8243	16800.00
8244	0.00
8245	0.00
8246	0.00
8247	16800.00
8248	16800.00
8249	16800.00
8250	16800.00
8251	0.00
8252	0.00
8253	16800.00
8254	16800.00
8255	16800.00
8256	16800.00
8257	16800.00
8258	0.00
8259	0.00
8260	0.00
8261	0.00
8262	0.00
8263	16800.00
8264	16800.00
8265	16800.00
8266	16800.00
8267	0.00
8268	0.00
8269	16800.00
8270	16800.00
8271	16800.00
8272	16800.00
8273	0.00
8274	0.00
8275	16800.00
8276	16800.00
8277	16800.00
8278	16800.00
8279	0.00
8280	0.00
8281	16800.00
8282	16800.00
8283	16800.00
8284	16800.00
8285	0.00
8286	0.00
8287	16800.00
8288	16800.00
8289	16800.00
8290	16800.00
8291	16800.00
8292	16800.00
8293	0.00
8294	0.00
8295	16800.00
8296	16800.00
8297	16800.00
8298	16800.00
8299	16800.00
8300	16800.00
8301	0.00
8302	0.00
8303	16800.00
8304	16800.00
8305	16800.00
8306	16800.00
8307	16800.00
8308	0.00
8309	0.00
8310	0.00
8311	0.00
8312	16800.00
8313	16800.00
8314	16800.00
8315	16800.00
8316	0.00
8317	0.00
8318	16800.00
8319	16800.00
8320	16800.00
8321	16800.00
8322	16800.00
8323	0.00
8324	0.00
8325	16800.00
8326	16800.00
8327	16800.00
8328	16800.00
8329	16800.00
8330	0.00
8331	0.00
8332	16800.00
8333	16800.00
8334	16800.00
8335	16800.00
8336	0.00
8337	0.00
8338	16800.00
8339	16800.00
8340	16800.00
8341	16800.00
8342	16800.00
8343	0.00
8344	0.00
8345	16800.00
8346	16800.00
8347	16800.00
8348	16800.00
8349	16800.00
8350	0.00
8351	0.00
8352	16800.00
8353	16800.00
8354	16800.00
8355	16800.00
8356	16800.00
8357	16800.00
8358	0.00
8359	0.00
8360	16800.00
8361	16800.00
8362	16800.00
8363	16800.00
8364	16800.00
8365	0.00
8366	0.00
8367	16800.00
8368	16800.00
8369	16800.00
8370	16800.00
8371	16800.00
8372	16800.00
8373	0.00
8374	0.00
8375	16800.00
8376	16800.00
8377	16800.00
8378	16800.00
8379	16800.00
8380	0.00
8381	0.00
8382	16800.00
8383	16800.00
8384	16800.00
8385	16800.00
8386	16800.00
8387	16800.00
8388	0.00
8389	0.00
8390	16800.00
8391	16800.00
8392	16800.00
8393	16800.00
8394	0.00
8395	0.00
8396	16800.00
8397	16800.00
8398	16800.00
8399	16800.00
8400	0.00
8401	0.00
8402	16800.00
8403	16800.00
8404	16800.00
8405	16800.00
8406	0.00
8407	0.00
8408	16800.00
8409	16800.00
8410	16800.00
8411	16800.00
8412	16800.00
8413	0.00
8414	0.00
8415	16800.00
8416	16800.00
8417	16800.00
8418	16800.00
8419	16800.00
8420	16800.00
8421	0.00
8422	0.00
8423	16800.00
8424	16800.00
8425	16800.00
8426	16800.00
8427	16800.00
8428	0.00
8429	0.00
8430	16800.00
8431	16800.00
8432	16800.00
8433	16800.00
8434	16800.00
8435	0.00
8436	0.00
8437	16800.00
8438	16800.00
8439	16800.00
8440	16800.00
8441	0.00
8442	0.00
8443	16800.00
8444	16800.00
8445	16800.00
8446	16800.00
8447	0.00
8448	0.00
8449	16800.00
8450	16800.00
8451	16800.00
8452	16800.00
8453	16800.00
8454	0.00
8455	0.00
8456	16800.00
8457	16800.00
8458	16800.00
8459	16800.00
8460	16800.00
8461	0.00
8462	0.00
8463	16800.00
8464	16800.00
8465	16800.00
8466	16800.00
8467	16800.00
8468	0.00
8469	0.00
8470	16800.00
8471	16800.00
8472	16800.00
8473	16800.00
8474	0.00
8475	0.00
8476	16800.00
8477	16800.00
8478	16800.00
8479	16800.00
8480	16800.00
8481	0.00
8482	0.00
8483	16800.00
8484	16800.00
8485	16800.00
8486	16800.00
8487	16800.00
8488	0.00
8489	0.00
8490	16800.00
8491	16800.00
8492	16800.00
8493	16800.00
8494	0.00
8495	0.00
8496	16800.00
8497	16800.00
8498	16800.00
8499	16800.00
8500	16800.00
8501	16800.00
8502	16800.00
8503	0.00
8504	0.00
8505	16800.00
8506	16800.00
8507	16800.00
8508	16800.00
8509	0.00
8510	0.00
8511	16800.00
8512	16800.00
8513	16800.00
8514	16800.00
8515	16800.00
8516	0.00
8517	0.00
8518	16800.00
8519	16800.00
8520	16800.00
8521	16800.00
8522	16800.00
8523	0.00
8524	0.00
8525	16800.00
8526	16800.00
8527	16800.00
8528	16800.00
8529	16800.00
8530	0.00
8531	0.00
8532	16800.00
8533	16800.00
8534	16800.00
8535	16800.00
8536	16800.00
8537	0.00
8538	0.00
8539	16800.00
8540	16800.00
8541	16800.00
8542	16800.00
8543	0.00
8544	0.00
8545	16800.00
8546	16800.00
8547	16800.00
8548	16800.00
8549	16800.00
8550	0.00
8551	0.00
8552	16800.00
8553	16800.00
8554	16800.00
8555	16800.00
8556	16800.00
8557	0.00
8558	0.00
8559	16800.00
8560	16800.00
8561	16800.00
8562	16800.00
8563	0.00
8564	0.00
8565	16800.00
8566	16800.00
8567	16800.00
8568	16800.00
8569	16800.00
8570	16800.00
8571	0.00
8572	0.00
8573	0.00
8574	0.00
8575	16800.00
8576	16800.00
8577	16800.00
8578	16800.00
8579	16800.00
8580	0.00
8581	0.00
8582	16800.00
8583	16800.00
8584	16800.00
8585	16800.00
8586	16800.00
8587	0.00
8588	0.00
8589	16800.00
8590	16800.00
8591	16800.00
8592	16800.00
8593	0.00
8594	0.00
8595	0.00
8596	16800.00
8597	16800.00
8598	16800.00
8599	16800.00
8600	16800.00
8601	0.00
8602	0.00
8603	16800.00
8604	16800.00
8605	16800.00
8606	16800.00
8607	16800.00
8608	16800.00
8609	0.00
8610	0.00
8611	0.00
8612	16800.00
8613	16800.00
8614	16800.00
8615	16800.00
8616	0.00
8617	0.00
8618	0.00
8619	0.00
8620	0.00
8621	0.00
8622	16800.00
8623	16800.00
8624	16800.00
8625	16800.00
8626	0.00
8627	0.00
8628	16800.00
8629	16800.00
8630	16800.00
8631	16800.00
8632	0.00
8633	0.00
8634	16800.00
8635	16800.00
8636	16800.00
8637	16800.00
8638	16800.00
8639	0.00
8640	0.00
8641	16800.00
8642	16800.00
8643	16800.00
8644	16800.00
8645	16800.00
8646	0.00
8647	0.00
8648	16800.00
8649	16800.00
8650	16800.00
8651	16800.00
8652	16800.00
8653	0.00
8654	0.00
8655	16800.00
8656	16800.00
8657	16800.00
8658	16800.00
8659	16800.00
8660	0.00
8661	0.00
8662	16800.00
8663	16800.00
8664	16800.00
8665	16800.00
8666	16800.00
8667	16800.00
8668	0.00
8669	0.00
8670	16800.00
8671	16800.00
8672	16800.00
8673	16800.00
8674	16800.00
8675	16800.00
8676	0.00
8677	0.00
8678	16800.00
8679	16800.00
8680	16800.00
8681	16800.00
8682	16800.00
8683	0.00
8684	0.00
8685	16800.00
8686	16800.00
8687	16800.00
8688	16800.00
8689	0.00
8690	0.00
8691	0.00
8692	0.00
8693	0.00
8694	0.00
8695	16800.00
8696	16800.00
8697	16800.00
8698	16800.00
8699	0.00
8700	0.00
8701	16800.00
8702	16800.00
8703	16800.00
8704	16800.00
8705	16800.00
8706	16800.00
8707	0.00
8708	0.00
8709	16800.00
8710	16800.00
8711	16800.00
8712	16800.00
8713	16800.00
8714	0.00
8715	0.00
8716	0.00
8717	0.00
8718	0.00
8719	16800.00
8720	16800.00
8721	16800.00
8722	16800.00
8723	0.00
8724	0.00
8725	16800.00
8726	16800.00
8727	16800.00
8728	16800.00
8729	16800.00
8730	16800.00
8731	0.00
8732	0.00
8733	16800.00
8734	16800.00
8735	16800.00
8736	16800.00
8737	16800.00
8738	0.00
8739	0.00
8740	0.00
8741	0.00
8742	16800.00
8743	16800.00
8744	16800.00
8745	16800.00
8746	16800.00
8747	16800.00
8748	0.00
8749	0.00
8750	16800.00
8751	16800.00
8752	16800.00
8753	16800.00
8754	16800.00
8755	0.00
8756	0.00
8757	16800.00
8758	16800.00
8760	16800.00
