Time [h]	Room.WindowSolarRadiationFluxSum [W]	Room.WindowSolarRadiationLoad [W]	Simple window, no frame and divider.FluxShortWaveRadiationB [W]	Simple window, no frame and divider.FluxShortWaveRadiationB [W]	Simple window, no frame and divider.FluxShortWaveRadiationB [W]	Simple window, no frame and divider.FluxShortWaveRadiationB [W]
4344	0	0	0	0	0	0
4344.166667	0	0	0	0	0	0
4344.333333	0	0	0	0	0	0
4344.5	0	0	0	0	0	0
4344.666667	0	0	0	0	0	0
4344.833333	0	0	0	0	0	0
4345	0	0	0	0	0	0
4345.166667	0	0	0	0	0	0
4345.333333	0	0	0	0	0	0
4345.5	0	0	0	0	0	0
4345.666667	0	0	0	0	0	0
4345.833333	0	0	0	0	0	0
4346	0	0	0	0	0	0
4346.166667	0	0	0	0	0	0
4346.333333	0	0	0	0	0	0
4346.5	0	0	0	0	0	0
4346.666667	7.2	3.6	1.8	1.8	1.8	1.8
4346.833333	14.4	7.2	3.6	3.6	3.6	3.6
4347	21.6	10.8	5.4	5.4	5.4	5.4
4347.166667	28.8	14.4	7.2	7.2	7.2	7.2
4347.333333	36	18	9	9	9	9
4347.5	43.2	21.6	10.8	10.8	10.8	10.8
4347.666667	56.4	28.2	14.1	14.1	14.1	14.1
4347.833333	69.6	34.8	17.4	17.4	17.4	17.4
4348	82.8	41.4	20.7	20.7	20.7	20.7
4348.166667	96	48	24	24	24	24
4348.333333	109.2	54.6	27.3	27.3	27.3	27.3
4348.5	122.4	61.2	30.6	30.6	30.6	30.6
4348.666667	171.6	85.8	42.9	42.9	42.9	42.9
4348.833333	220.8	110.4	55.2	55.2	55.2	55.2
4349	270	135	67.5	67.5	67.5	67.5
4349.166667	319.2	159.6	79.8	79.8	79.8	79.8
4349.333333	368.4	184.2	92.1	92.1	92.1	92.1
4349.5	417.6	208.8	104.4	104.4	104.4	104.4
4349.666667	631.788	315.894	156.184	178.271	148.667	148.667
4349.833333	844.283	422.141	205.504	252.596	193.091	193.091
4350	1055.3	527.649	252.741	327.207	237.675	237.675
4350.166667	1265.05	632.523	298.28	401.932	282.418	282.418
4350.333333	1473.74	736.871	342.502	476.601	327.32	327.32
4350.5	1681.59	840.796	385.789	551.043	372.38	372.38
4350.666667	1732.15	866.077	398.809	552.373	390.486	390.486
4350.833333	1783.65	891.826	413.16	553.484	408.504	408.504
4351	1836	918.002	428.663	554.47	426.435	426.435
4351.166667	1889.06	944.53	445.079	555.422	444.279	444.279
4351.333333	1942.68	971.34	462.173	556.433	462.037	462.037
4351.5	1996.72	998.36	479.71	557.583	479.716	479.71
4351.666667	2005.61	1002.81	483.749	554.147	483.969	483.749
4351.833333	2014.72	1007.36	487.753	550.788	488.425	487.753
4352	2023.98	1011.99	491.722	547.546	492.992	491.722
4352.166667	2033.36	1016.68	495.657	544.46	497.588	495.657
4352.333333	2042.82	1021.41	499.56	541.569	502.134	499.56
4352.5	2052.25	1026.13	503.43	538.84	506.553	503.43
4352.666667	2206.37	1103.19	533.155	599.072	540.99	533.155
4352.833333	2360.39	1180.2	563.05	656.723	577.57	563.05
4353	2514.34	1257.17	593.104	711.66	616.475	593.104
4353.166667	2668.22	1334.11	623.308	763.765	657.839	623.308
4353.333333	2821.06	1410.53	653.652	812.01	701.744	653.652
4353.5	2972.9	1486.45	684.123	856.432	748.221	684.123
4353.666667	3100.21	1550.1	714.657	881.091	789.802	714.657
4353.833333	3225.91	1612.96	745.201	904.829	830.682	745.201
4354	3350.2	1675.1	775.75	927.451	871.251	775.75
4354.166667	3470.75	1735.37	806.3	946.07	912.077	806.3
4354.333333	3590.97	1795.49	836.847	964.207	953.071	836.847
4354.5	3710.91	1855.45	867.386	981.998	994.138	867.386
4354.666667	3787.32	1893.66	870.598	1000.35	1045.77	870.598
4354.833333	3854.6	1927.3	873.995	1005.83	1100.78	873.995
4355	3914.17	1957.08	877.539	1000.52	1158.56	877.539
4355.166667	3969.64	1984.82	881.191	988.802	1218.46	881.191
4355.333333	4022.33	2011.17	884.911	972.745	1279.76	884.911
4355.5	4073.02	2036.51	888.66	953.973	1341.73	888.66
4355.666667	3907.36	1953.68	859.245	894.642	1294.23	859.245
4355.833333	3748.22	1874.11	829.674	845.033	1243.84	829.674
4356	3594.77	1797.38	799.967	803.957	1190.88	799.967
4356.166667	3446.18	1723.09	770.144	770.181	1135.71	770.144
4356.333333	3301.6	1650.8	740.224	740.224	1078.72	742.434
4356.5	3160.17	1580.09	710.229	710.229	1020.29	719.42
4356.666667	3192.75	1596.38	714.596	714.596	1027.1	736.466
4356.833333	3229.11	1614.56	718.871	718.871	1032.22	759.148
4357	3268.46	1634.23	723.052	723.052	1035.64	786.72
4357.166667	3310.46	1655.23	727.134	727.134	1037.32	818.875
4357.333333	3355.88	1677.94	731.114	731.114	1037.27	856.385
4357.5	3404.82	1702.41	734.989	734.989	1035.5	899.34
4357.666667	3496.43	1748.22	761.175	761.175	1025.74	948.341
4357.833333	3578.19	1789.09	787.413	787.413	1017.15	986.214
4358	3657.5	1828.75	813.725	813.725	1010.1	1019.95
4358.166667	3734.21	1867.1	840.133	840.133	1004.94	1049
4358.333333	3808.16	1904.08	866.657	866.657	1001.96	1072.9
4358.5	3876.05	1938.03	893.317	893.317	1001.42	1088
4358.666667	3688.27	1844.14	846.756	846.756	943.255	1051.5
4358.833333	3497.91	1748.96	800.198	800.198	883.412	1014.1
4359	3307.39	1653.69	753.645	753.645	824.351	975.745
4359.166667	3116.45	1558.23	707.103	707.103	766.172	936.073
4359.333333	2923.67	1461.84	660.575	660.575	708.96	893.562
4359.5	2730.89	1365.45	614.066	614.066	652.782	849.978
4359.666667	2610.4	1305.2	585.143	585.143	615.476	824.639
4359.833333	2490.02	1245.01	556.236	556.236	579.183	798.367
4360	2369.21	1184.6	527.349	527.349	543.659	770.849
4360.166667	2247.95	1123.97	498.485	498.485	509.22	741.758
4360.333333	2127.07	1063.54	469.646	469.646	475.993	711.789
4360.5	2006.6	1003.3	440.835	440.835	443.968	680.966
4360.666667	2016.92	1008.46	424.084	424.084	425.513	743.242
4360.833333	2028.6	1014.3	406.924	406.924	407.082	807.666
4361	2041.07	1020.53	389.7	389.348	389.348	872.673
4361.166667	2055.29	1027.64	374.446	371.347	371.347	938.147
4361.333333	2072.24	1036.12	362.446	352.918	352.918	1003.95
4361.5	2092.61	1046.31	354.865	334.056	334.056	1069.63
4361.666667	1876.91	938.454	333.408	304.042	304.042	935.417
4361.833333	1659.48	829.74	311.016	274.6	274.6	799.265
4362	1438.59	719.297	285.314	245.737	245.737	661.806
4362.166667	1214.36	607.178	255.767	217.459	217.459	523.671
4362.333333	986.03	493.015	221.003	189.768	189.768	385.491
4362.5	752.837	376.418	179.608	162.666	162.666	247.897
4362.666667	702.159	351.079	169.074	145.916	145.916	241.252
4362.833333	651.524	325.762	159.044	129.112	129.112	234.255
4363	600.991	300.495	149.632	112.255	112.255	226.849
4363.166667	550.906	275.453	141.238	95.3449	95.3449	218.978
4363.333333	501.275	250.637	133.919	78.3845	78.3845	210.587
4363.5	452.089	226.044	127.726	61.375	61.375	201.613
4363.666667	378.272	189.136	111.201	50.8371	50.8371	165.397
4363.833333	303.279	151.64	92.3768	40.427	40.427	130.049
4364	227.874	113.937	71.8819	30.1419	30.1419	95.7086
4364.166667	152.139	76.0695	49.675	19.9783	19.9783	62.5074
4364.333333	76.1544	38.0772	25.7226	9.93243	9.93243	30.5669
4364.5	0	0	0	0	0	0
4364.666667	0	0	0	0	0	0
4364.833333	0	0	0	0	0	0
4365	0	0	0	0	0	0
4365.166667	0	0	0	0	0	0
4365.333333	0	0	0	0	0	0
4365.5	0	0	0	0	0	0
4365.666667	0	0	0	0	0	0
4365.833333	0	0	0	0	0	0
4366	0	0	0	0	0	0
4366.166667	0	0	0	0	0	0
4366.333333	0	0	0	0	0	0
4366.5	0	0	0	0	0	0
4366.666667	0	0	0	0	0	0
4366.833333	0	0	0	0	0	0
4367	0	0	0	0	0	0
4367.166667	0	0	0	0	0	0
4367.333333	0	0	0	0	0	0
4367.5	0	0	0	0	0	0
4367.666667	0	0	0	0	0	0
4367.833333	0	0	0	0	0	0
4368	0	0	0	0	0	0
4368.166667	0	0	0	0	0	0
4368.333333	0	0	0	0	0	0
4368.5	0	0	0	0	0	0
4368.666667	0	0	0	0	0	0
4368.833333	0	0	0	0	0	0
4369	0	0	0	0	0	0
4369.166667	0	0	0	0	0	0
4369.333333	0	0	0	0	0	0
4369.5	0	0	0	0	0	0
4369.666667	0	0	0	0	0	0
4369.833333	0	0	0	0	0	0
4370	0	0	0	0	0	0
4370.166667	0	0	0	0	0	0
4370.333333	0	0	0	0	0	0
4370.5	0	0	0	0	0	0
4370.666667	0	0	0	0	0	0
4370.833333	0	0	0	0	0	0
4371	0	0	0	0	0	0
4371.166667	0	0	0	0	0	0
4371.333333	0	0	0	0	0	0
4371.5	0	0	0	0	0	0
4371.666667	46.8	23.4	11.7	11.7	11.7	11.7
4371.833333	93.6	46.8	23.4	23.4	23.4	23.4
4372	258.224	129.112	86.7549	101.152	35.1584	35.1584
4372.166667	343.961	171.98	111.862	137.859	47.1198	47.1198
4372.333333	429.387	214.694	135.105	175.861	59.2101	59.2101
4372.5	514.416	257.208	156.524	215.025	71.4332	71.4332
4372.666667	716.849	358.425	216.768	329.102	85.4897	85.4897
4372.833333	916.631	458.316	269.057	447.425	100.075	100.075
4373	1109.76	554.879	310.985	568.372	115.201	115.201
4373.166667	1298.47	649.233	345.167	691.545	130.877	130.877
4373.333333	1483.12	741.561	372.263	816.636	147.112	147.112
4373.5	1663.84	831.919	392.961	943.055	163.911	163.911
4373.666667	1776.05	888.023	393.757	1022.7	179.794	179.794
4373.833333	1878.62	939.311	384.855	1101.77	196	196
4374	1980.18	990.092	375.22	1179.91	212.529	212.529
4374.166667	2081.15	1040.58	365.625	1256.77	229.376	229.376
4374.333333	2181.93	1090.96	356.824	1332.03	246.537	246.537
4374.5	2282.9	1141.45	349.55	1405.33	264.006	264.006
4374.666667	2330.5	1165.25	345.111	1410.42	287.486	287.486
4374.833333	2381.38	1190.69	346.192	1413.43	310.879	310.879
4375	2435.7	1217.85	352.908	1414.44	334.18	334.18
4375.166667	2493.25	1246.62	364.938	1413.54	357.384	357.384
4375.333333	2553.75	1276.88	381.945	1410.83	380.488	380.488
4375.5	2616.94	1308.47	403.487	1406.4	403.574	403.487
4375.666667	2676.77	1338.38	435.399	1367.62	438.357	435.399
4375.833333	2739.04	1369.52	466.994	1328.81	476.244	466.994
4376	2803.31	1401.65	498.277	1290.36	516.391	498.277
4376.166667	2869.14	1434.57	529.25	1252.65	557.983	529.25
4376.333333	2936.11	1468.06	559.919	1216.02	600.25	559.919
4376.5	3002.76	1501.38	590.291	1179.77	642.404	590.291
4376.666667	2748.96	1374.48	554.388	1029.23	610.956	554.388
4376.833333	2495.86	1247.93	517.938	885.024	574.958	517.938
4377	2243.2	1121.6	480.966	747.637	533.637	480.966
4377.166667	1990.84	995.418	443.495	617.495	486.35	443.495
4377.333333	1738.19	869.093	405.555	494.477	432.599	405.555
4377.5	1486.58	743.289	367.173	380.204	372.027	367.173
4377.666667	1433.96	716.979	354.459	365.562	359.478	354.459
4377.833333	1381.28	690.638	341.738	351.066	346.735	341.738
4378	1328.59	664.293	329.009	336.712	333.857	329.009
4378.166667	1275.8	637.899	316.273	322.368	320.884	316.273
4378.333333	1223.11	611.555	303.53	308.232	307.818	303.53
4378.5	1170.52	585.26	290.782	294.294	294.663	290.782
4378.666667	1282.98	641.488	318.601	322.25	323.523	318.601
4378.833333	1395.23	697.613	346.423	349.933	352.446	346.423
4379	1507.31	753.655	374.248	377.396	381.418	374.248
4379.166667	1619.33	809.664	402.075	404.75	410.427	402.075
4379.333333	1731.3	865.651	429.903	432.038	439.458	429.903
4379.5	1843.25	921.624	457.73	459.293	468.494	457.73
4379.666667	1911.56	955.781	474.544	475.561	486.914	474.544
4379.833333	1979.91	989.957	491.357	491.883	505.317	491.357
4380	2048.35	1024.18	508.168	508.331	523.683	508.168
4380.166667	2116.92	1058.46	524.976	524.978	541.989	524.976
4380.333333	2185.67	1092.83	541.779	541.779	560.214	541.894
4380.5	2254.64	1127.32	558.577	558.577	578.336	559.15
4380.666667	2392.22	1196.11	589.625	589.625	621.175	591.798
4380.833333	2530.9	1265.45	620.646	620.646	663.522	626.089
4381	2670.91	1335.45	651.632	651.632	705.211	662.434
4381.166667	2812.42	1406.21	682.573	682.573	746.088	701.188
4381.333333	2955.82	1477.91	713.46	713.46	786.008	742.897
4381.5	3101.41	1550.7	744.284	744.284	824.843	787.997
4381.666667	3094.42	1547.21	738.65	738.65	820.767	796.349
4381.833333	3086.12	1543.06	732.966	732.966	815.916	804.269
4382	3078.59	1539.29	727.229	727.229	810.269	813.858
4382.166667	3071.85	1535.92	721.436	721.436	803.818	825.16
4382.333333	3065.93	1532.97	715.582	715.582	796.564	838.207
4382.5	3058.6	1529.3	709.665	709.665	788.517	850.749
4382.666667	2671.01	1335.51	620.307	620.307	681.448	748.949
4382.833333	2280.91	1140.46	531.072	531.072	575.215	643.552
4383	1890.19	945.096	441.972	441.972	471.714	534.534
4383.166667	1498.79	749.396	353.021	353.021	370.941	421.807
4383.333333	1106.54	553.268	264.23	264.23	272.837	305.239
4383.5	714.196	357.098	175.611	175.611	177.284	185.69
4383.666667	825.826	412.913	199.425	199.425	202.623	224.354
4383.833333	937.528	468.764	223.157	223.157	227.095	264.118
4384	1049.2	524.601	246.804	246.804	250.761	304.833
4384.166667	1160.75	580.374	270.362	270.362	273.783	346.241
4384.333333	1272.39	636.197	293.828	293.828	296.375	388.361
4384.5	1384.24	692.118	317.2	317.2	318.743	431.093
4384.666667	1337.16	668.58	303.955	303.955	304.531	424.719
4384.833333	1290.37	645.185	290.682	290.682	290.744	418.262
4385	1243.6	621.802	277.464	277.381	277.381	411.379
4385.166667	1197.12	598.558	264.775	264.051	264.051	404.239
4385.333333	1151.06	575.528	252.76	250.693	250.693	396.91
4385.5	1105.48	552.741	241.504	237.307	237.307	389.364
4385.666667	1344.23	672.116	253.357	235.871	235.871	619.132
4385.833333	1591.44	795.718	275.327	233.203	233.203	849.703
4386	1847.53	923.764	309.188	229.297	229.297	1079.75
4386.166667	2114.5	1057.25	358.267	224.15	224.15	1307.94
4386.333333	2394.11	1197.05	425.632	217.765	217.765	1532.95
4386.5	2688.03	1344.01	514.268	210.149	210.149	1753.46
4386.666667	2302.07	1151.04	486.857	178.306	178.306	1458.61
4386.833333	1897.08	948.538	435.887	147.845	147.845	1165.5
4387	1477.42	738.71	364.293	118.759	118.759	875.609
4387.166667	1047.91	523.953	275.455	91.0351	91.0351	590.381
4387.333333	608.3	304.15	167.743	64.6565	64.6565	311.244
4387.5	158.4	79.2	39.6	39.6	39.6	39.6
4387.666667	135.6	67.8	33.9	33.9	33.9	33.9
4387.833333	112.8	56.4	28.2	28.2	28.2	28.2
4388	90	45	22.5	22.5	22.5	22.5
4388.166667	67.2	33.6	16.8	16.8	16.8	16.8
4388.333333	44.4	22.2	11.1	11.1	11.1	11.1
4388.5	21.6	10.8	5.4	5.4	5.4	5.4
4388.666667	18	9	4.5	4.5	4.5	4.5
4388.833333	14.4	7.2	3.6	3.6	3.6	3.6
4389	10.8	5.4	2.7	2.7	2.7	2.7
4389.166667	7.2	3.6	1.8	1.8	1.8	1.8
4389.333333	3.6	1.8	0.9	0.9	0.9	0.9
4389.5	0	0	0	0	0	0
4389.666667	0	0	0	0	0	0
4389.833333	0	0	0	0	0	0
4390	0	0	0	0	0	0
4390.166667	0	0	0	0	0	0
4390.333333	0	0	0	0	0	0
4390.5	0	0	0	0	0	0
4390.666667	0	0	0	0	0	0
4390.833333	0	0	0	0	0	0
4391	0	0	0	0	0	0
4391.166667	0	0	0	0	0	0
4391.333333	0	0	0	0	0	0
4391.5	0	0	0	0	0	0
4391.666667	0	0	0	0	0	0
4391.833333	0	0	0	0	0	0
4392	0	0	0	0	0	0
4392.166667	0	0	0	0	0	0
4392.333333	0	0	0	0	0	0
4392.5	0	0	0	0	0	0
4392.666667	0	0	0	0	0	0
4392.833333	0	0	0	0	0	0
4393	0	0	0	0	0	0
4393.166667	0	0	0	0	0	0
4393.333333	0	0	0	0	0	0
4393.5	0	0	0	0	0	0
4393.666667	0	0	0	0	0	0
4393.833333	0	0	0	0	0	0
4394	0	0	0	0	0	0
4394.166667	0	0	0	0	0	0
4394.333333	0	0	0	0	0	0
4394.5	0	0	0	0	0	0
4394.666667	0	0	0	0	0	0
4394.833333	0	0	0	0	0	0
4395	0	0	0	0	0	0
4395.166667	0	0	0	0	0	0
4395.333333	0	0	0	0	0	0
4395.5	0	0	0	0	0	0
4395.666667	43.2	21.6	10.8	10.8	10.8	10.8
4395.833333	86.4	43.2	21.6	21.6	21.6	21.6
4396	1522.59	761.293	643.207	813.498	32.9402	32.9402
4396.166667	1129.21	564.604	440.202	598.91	45.0487	45.0487
4396.333333	737.294	368.647	258.401	367.216	55.8388	55.8388
4396.5	347.784	173.892	97.5336	119.734	65.2582	65.2582
4396.666667	539.041	269.521	156.75	222.589	79.851	79.851
4396.833333	728.215	364.107	208.962	329.422	94.9158	94.9158
4397	912.19	456.095	252.324	438.939	110.464	110.464
4397.166667	1092.25	546.126	288.557	550.687	126.504	126.504
4397.333333	1268.65	634.327	318.248	664.318	143.044	143.044
4397.5	1441.49	720.747	342.01	779.304	160.091	160.091
4397.666667	1625.28	812.64	362.122	913.946	174.606	174.606
4397.833333	1797.47	898.735	368.767	1049.21	189.749	189.749
4398	1965.4	982.7	369.949	1184.41	205.521	205.521
4398.166667	2129.91	1064.95	367.181	1318.89	221.92	221.92
4398.333333	2291.82	1145.91	361.965	1451.97	238.941	238.941
4398.5	2451.91	1225.95	355.773	1582.97	256.58	256.58
4398.666667	2528.45	1264.23	340.494	1647.97	269.996	269.996
4398.833333	2606.59	1303.29	329.196	1710	283.698	283.698
4399	2687.12	1343.56	323.031	1768.74	297.676	297.676
4399.166667	2770.36	1385.18	322.629	1823.89	311.919	311.919
4399.333333	2856.52	1428.26	328.555	1875.13	326.415	326.415
4399.5	2945.78	1472.89	341.151	1922.18	341.301	341.151
4399.666667	2973.03	1486.52	364.474	1874.73	369.347	364.474
4399.833333	3003.53	1501.77	387.513	1825.41	403.095	387.513
4400	3037.08	1518.54	410.266	1774.86	441.687	410.266
4400.166667	3073.17	1536.59	432.732	1723.43	484.278	432.732
4400.333333	3111.33	1555.66	454.911	1671.47	530.037	454.911
4400.5	3149.09	1574.54	476.805	1617.48	577.998	476.805
4400.666667	3163.58	1581.79	491.094	1562.28	619.108	491.094
4400.833333	3178.87	1589.44	505.15	1507.31	661.265	505.15
4401	3194.66	1597.33	518.973	1452.81	703.908	518.973
4401.166667	3210.67	1605.33	532.566	1399.04	746.501	532.566
4401.333333	3222.39	1611.19	545.932	1341.99	788.533	545.932
4401.5	3231.44	1615.72	559.074	1283.77	829.529	559.074
4401.666667	3309.46	1654.73	569.743	1279.02	890.953	569.743
4401.833333	3379.76	1689.88	580.506	1269.08	949.673	580.506
4402	3444.92	1722.46	591.34	1253.89	1008.34	591.34
4402.166667	3492.32	1746.16	602.223	1219.06	1068.82	602.223
4402.333333	3537.62	1768.81	613.132	1180.69	1130.66	613.132
4402.5	3580.96	1790.48	624.043	1139.46	1193.41	624.043
4402.666667	3267.44	1633.72	597.171	971.419	1101.68	597.171
4402.833333	2958.59	1479.29	569.634	820.35	998.968	569.634
4403	2662.52	1331.26	541.509	693.24	886.26	541.509
4403.166667	2384.22	1192.11	512.878	593.79	764.672	512.878
4403.333333	2120.98	1060.49	483.823	517.865	635.469	483.823
4403.5	1869.99	934.996	454.43	461.094	500.037	454.43
4403.666667	2112.7	1056.35	479.032	494.089	660.55	479.032
4403.833333	2348.09	1174.04	503.809	516.062	824.406	503.809
4404	2580.57	1290.28	528.654	533.655	989.606	528.654
4404.166667	2814.61	1407.3	553.463	553.571	1154.11	553.463
4404.333333	3054.66	1527.33	578.127	578.127	1315.88	582.525
4404.5	3305.16	1652.58	602.542	602.542	1472.88	627.196
4404.666667	3331.8	1665.9	611.875	611.875	1440.02	668.031
4404.833333	3365.38	1682.69	621.043	621.043	1404.09	719.201
4405	3402.68	1701.34	630.07	630.07	1365.68	776.86
4405.166667	3441.65	1720.82	638.986	638.986	1325.38	838.299
4405.333333	3483.09	1741.55	647.815	647.815	1283.79	903.675
4405.5	3526.11	1763.05	656.586	656.586	1241.5	971.437
4405.666667	3431.01	1715.5	634.791	634.791	1160.11	1001.32
4405.833333	3317.69	1658.84	613.038	613.038	1079.97	1011.65
4406	3200.95	1600.47	591.362	591.362	1001.7	1016.52
4406.166667	3080.55	1540.28	569.793	569.793	925.882	1015.08
4406.333333	2956.27	1478.14	548.366	548.366	853.018	1006.52
4406.5	2820.66	1410.33	527.112	527.112	783.561	982.871
4406.666667	2706.49	1353.25	507.06	507.06	726.717	965.653
4406.833333	2585.26	1292.63	487.141	487.141	667.779	943.203
4407	2462.9	1231.45	467.375	467.375	612.739	915.409
4407.166667	2339.22	1169.61	447.781	447.781	561.984	881.669
4407.333333	2211.68	1105.84	428.38	428.38	515.587	839.333
4407.5	2084.06	1042.03	409.189	409.189	473.534	792.147
4407.666667	2152.14	1076.07	403.942	403.942	465.645	878.606
4407.833333	2220.76	1110.38	398.241	398.241	454.057	970.224
4408	2288.68	1144.34	392.068	392.068	438.859	1065.69
4408.166667	2355.12	1177.56	385.406	385.406	421.259	1163.05
4408.333333	2422.63	1211.32	378.243	378.243	402.773	1263.37
4408.5	2491.82	1245.91	370.565	370.565	384.595	1366.1
4408.666667	2177.86	1088.93	330.193	330.193	334.533	1182.94
4408.833333	1864.13	932.063	290.667	290.667	291.078	991.714
4409	1548.43	774.214	252.291	252.013	252.013	792.112
4409.166667	1231.61	615.805	216.064	214.256	214.256	587.035
4409.333333	912.957	456.479	180.147	177.415	177.415	377.979
4409.5	591.141	295.57	142.166	141.509	141.509	165.957
4409.666667	588.068	294.034	136.95	134.871	134.871	181.376
4409.833333	585.82	292.91	132.736	128.116	128.116	196.853
4410	584.43	292.215	129.682	121.243	121.243	212.263
4410.166667	584.086	292.043	128.104	114.252	114.252	227.478
4410.333333	584.96	292.48	128.301	107.143	107.143	242.373
4410.5	587.214	293.607	130.557	99.9171	99.9171	256.823
4410.666667	664.978	332.489	150.446	97.0623	97.0623	320.407
4410.833333	745.246	372.623	175.058	93.8531	93.8531	382.482
4411	827.229	413.615	203.969	90.2943	90.2943	442.672
4411.166667	911.956	455.978	238.563	86.3919	86.3919	500.609
4411.333333	999.467	499.733	279.226	82.1534	82.1534	555.933
4411.5	1089.79	544.895	326.324	77.5874	77.5874	608.292
4411.666667	917.974	458.987	291.134	64.3876	64.3876	498.065
4411.833333	741.194	370.597	246.881	51.6717	51.6717	390.97
4412	562.858	281.429	196.323	39.4285	39.4285	287.678
4412.166667	383.278	191.639	139.303	27.6455	27.6455	188.684
4412.333333	202.758	101.379	75.6935	16.308	16.308	94.4485
4412.5	21.6	10.8	5.4	5.4	5.4	5.4
4412.666667	18	9	4.5	4.5	4.5	4.5
4412.833333	14.4	7.2	3.6	3.6	3.6	3.6
4413	10.8	5.4	2.7	2.7	2.7	2.7
4413.166667	7.2	3.6	1.8	1.8	1.8	1.8
4413.333333	3.6	1.8	0.9	0.9	0.9	0.9
4413.5	0	0	0	0	0	0
4413.666667	0	0	0	0	0	0
4413.833333	0	0	0	0	0	0
4414	0	0	0	0	0	0
4414.166667	0	0	0	0	0	0
4414.333333	0	0	0	0	0	0
4414.5	0	0	0	0	0	0
4414.666667	0	0	0	0	0	0
4414.833333	0	0	0	0	0	0
4415	0	0	0	0	0	0
4415.166667	0	0	0	0	0	0
4415.333333	0	0	0	0	0	0
4415.5	0	0	0	0	0	0
4415.666667	0	0	0	0	0	0
4415.833333	0	0	0	0	0	0
4416	0	0	0	0	0	0
4416.166667	0	0	0	0	0	0
4416.333333	0	0	0	0	0	0
4416.5	0	0	0	0	0	0
4416.666667	0	0	0	0	0	0
4416.833333	0	0	0	0	0	0
4417	0	0	0	0	0	0
4417.166667	0	0	0	0	0	0
4417.333333	0	0	0	0	0	0
4417.5	0	0	0	0	0	0
4417.666667	0	0	0	0	0	0
4417.833333	0	0	0	0	0	0
4418	0	0	0	0	0	0
4418.166667	0	0	0	0	0	0
4418.333333	0	0	0	0	0	0
4418.5	0	0	0	0	0	0
4418.666667	3.6	1.8	0.9	0.9	0.9	0.9
4418.833333	7.2	3.6	1.8	1.8	1.8	1.8
4419	10.8	5.4	2.7	2.7	2.7	2.7
4419.166667	14.4	7.2	3.6	3.6	3.6	3.6
4419.333333	18	9	4.5	4.5	4.5	4.5
4419.5	21.6	10.8	5.4	5.4	5.4	5.4
4419.666667	64.8	32.4	16.2	16.2	16.2	16.2
4419.833333	108	54	27	27	27	27
4420	240.504	120.252	76.9621	87.8934	37.8244	37.8244
4420.166667	313.224	156.612	97.9246	117.667	48.8161	48.8161
4420.333333	385.712	192.856	117.473	148.428	59.9056	59.9056
4420.5	457.902	228.951	135.636	180.074	71.0959	71.0959
4420.666667	650.986	325.493	192.579	282.065	88.1708	88.1708
4420.833333	841.872	420.936	242.763	387.718	105.696	105.696
4421	1027.21	513.605	284.213	495.637	123.68	123.68
4421.166667	1208.83	604.417	319.034	605.533	142.134	142.134
4421.333333	1387.02	693.509	347.79	717.104	161.063	161.063
4421.5	1561.85	780.927	371.064	829.846	180.472	180.472
4421.666667	1634.78	817.388	371.351	835.832	213.797	213.797
4421.833333	1704.32	852.162	370.314	840.088	246.961	246.961
4422	1777.04	888.519	374.33	842.786	279.961	279.961
4422.166667	1852.69	926.344	382.999	844.102	312.794	312.794
4422.333333	1931.03	965.517	395.908	844.216	345.455	345.455
4422.5	2011.83	1005.92	412.635	843.31	377.943	377.943
4422.666667	2084.02	1042.01	426.852	848.766	404.203	404.203
4422.833333	2157.97	1078.98	443.78	853.473	430.358	430.358
4423	2233.62	1116.81	463.265	857.542	456.406	456.406
4423.166667	2310.77	1155.38	484.993	861.083	482.345	482.345
4423.333333	2389.21	1194.61	508.652	864.211	508.175	508.175
4423.5	2468.76	1234.38	533.897	867.035	533.933	533.897
4423.666667	2471.67	1235.84	535.011	865.552	536.101	535.011
4423.833333	2475.12	1237.56	536.129	863.14	539.717	536.129
4424	2479.17	1239.58	537.251	859.921	544.746	537.251
4424.166667	2483.79	1241.9	538.372	855.906	551.142	538.372
4424.333333	2488.93	1244.47	539.491	851.1	558.847	539.491
4424.5	2494.03	1247.01	540.606	845.078	567.739	540.606
4424.666667	2369.9	1184.95	523.21	770.586	552.892	523.21
4424.833333	2246.1	1123.05	505.543	699.192	535.82	505.543
4425	2122.51	1061.25	487.616	631.138	516.135	487.616
4425.166667	1999.04	999.518	469.443	566.634	493.516	469.443
4425.333333	1875.38	937.688	451.036	505.595	467.708	451.036
4425.5	1752.12	876.058	432.41	448.766	438.53	432.41
4425.666667	2075.5	1037.75	470.608	603.396	530.886	470.608
4425.833333	2393.62	1196.81	509.483	740.933	633.721	509.483
4426	2705.21	1352.6	548.973	861.465	745.797	548.973
4426.166667	3001.26	1500.63	589.016	956.299	866.931	589.016
4426.333333	3287.35	1643.68	629.546	1031.83	996.433	629.546
4426.5	3564.05	1782.02	670.496	1089.59	1133.46	670.496
4426.666667	3235.22	1617.61	627.68	936.27	1043.59	627.68
4426.833333	2909.54	1454.77	584.353	795.509	945.326	584.353
4427	2592.9	1296.45	540.575	672.378	839.378	540.575
4427.166667	2289.97	1144.99	496.405	570.586	726.575	496.405
4427.333333	1998.72	999.358	451.906	487.05	607.854	451.906
4427.5	1717	858.502	407.141	418.475	484.246	407.141
4427.666667	1997.84	998.922	473.891	481.789	568.273	473.891
4427.833333	2278.61	1139.3	540.643	544.973	652.346	540.643
4428	2559.81	1279.91	607.385	608.822	736.222	607.385
4428.166667	2842	1421	674.102	674.135	819.656	674.102
4428.333333	3125.68	1562.84	740.784	740.784	902.404	741.705
4428.5	3411.38	1705.69	807.418	807.418	984.228	812.314
4428.666667	3213.66	1606.83	755.678	755.678	934.683	767.625
4428.833333	3018.13	1509.07	703.886	703.886	884.162	726.2
4429	2824.41	1412.21	652.038	652.038	832.634	687.703
4429.166667	2632.24	1316.12	600.133	600.133	780.077	651.898
4429.333333	2442.1	1221.05	548.166	548.166	726.482	619.287
4429.5	2254.07	1127.04	496.137	496.137	671.847	589.95
4429.666667	2360	1180	521.044	521.044	683.989	633.918
4429.833333	2461.03	1230.52	545.936	545.936	696.012	673.147
4430	2561.68	1280.84	570.816	570.816	708.046	712.004
4430.166667	2661.92	1330.96	595.692	595.692	720.217	750.317
4430.333333	2761.7	1380.85	620.569	620.569	732.64	787.917
4430.5	2858.21	1429.11	645.453	645.453	745.426	821.884
4430.666667	2453.1	1226.55	554.214	554.214	631.097	713.578
4430.833333	2044.89	1022.45	463.139	463.139	518.082	600.532
4431	1635.65	817.824	372.244	372.244	408.449	482.713
4431.166667	1225.54	612.772	281.545	281.545	302.425	360.029
4431.333333	814.418	407.209	191.059	191.059	199.928	232.372
4431.5	403.2	201.6	100.8	100.8	100.8	100.8
4431.666667	752.414	376.207	147.474	147.474	166.4	291.066
4431.833333	1102.2	551.1	193.343	193.343	222.995	492.52
4432	1451.88	725.942	238.369	238.369	271.33	703.814
4432.166667	1800.33	900.167	282.518	282.518	312.719	922.579
4432.333333	2149.47	1074.73	325.757	325.757	349.242	1148.71
4432.5	2500.25	1250.13	368.059	368.059	382.924	1381.21
4432.666667	2414.59	1207.3	346.221	346.221	351.786	1370.36
4432.833333	2330.9	1165.45	324.401	324.401	325.131	1356.96
4433	2246.74	1123.37	303.035	302.605	302.605	1338.49
4433.166667	2164.26	1082.13	285.541	280.841	280.841	1317.04
4433.333333	2084.22	1042.11	272.656	259.113	259.113	1293.34
4433.5	2006.66	1003.33	264.358	237.43	237.43	1267.44
4433.666667	1990.09	995.044	269.467	223.517	223.517	1273.59
4433.833333	1976.92	988.46	280.076	209.518	209.518	1277.81
4434	1965.52	982.759	294.619	195.439	195.439	1280.02
4434.166667	1956.85	978.423	314.122	181.286	181.286	1280.15
4434.333333	1951.33	975.663	339.068	167.062	167.062	1278.13
4434.5	1949.07	974.536	369.629	152.775	152.775	1273.89
4434.666667	1896.47	948.234	396.323	141.254	141.254	1217.64
4434.833333	1837.85	918.927	417.943	129.961	129.961	1159.99
4435	1772.91	886.457	433.925	118.898	118.898	1101.19
4435.166667	1706.72	853.358	449.089	108.069	108.069	1041.49
4435.333333	1639.19	819.595	463.119	97.4743	97.4743	981.122
4435.5	1570.27	785.133	475.701	87.115	87.115	920.336
4435.666667	1318.69	659.343	425.371	70.7611	70.7611	751.792
4435.833333	1058.85	529.427	360.512	55.1667	55.1667	588.009
4436	796.587	398.293	285.77	40.3148	40.3148	430.187
4436.166667	532.37	266.185	200.896	26.1853	26.1853	279.104
4436.333333	266.684	133.342	105.689	12.7555	12.7555	135.484
4436.5	0	0	0	0	0	0
4436.666667	0	0	0	0	0	0
4436.833333	0	0	0	0	0	0
4437	0	0	0	0	0	0
4437.166667	0	0	0	0	0	0
4437.333333	0	0	0	0	0	0
4437.5	0	0	0	0	0	0
4437.666667	0	0	0	0	0	0
4437.833333	0	0	0	0	0	0
4438	0	0	0	0	0	0
4438.166667	0	0	0	0	0	0
4438.333333	0	0	0	0	0	0
4438.5	0	0	0	0	0	0
4438.666667	0	0	0	0	0	0
4438.833333	0	0	0	0	0	0
4439	0	0	0	0	0	0
4439.166667	0	0	0	0	0	0
4439.333333	0	0	0	0	0	0
4439.5	0	0	0	0	0	0
4439.666667	0	0	0	0	0	0
4439.833333	0	0	0	0	0	0
4440	0	0	0	0	0	0
4440.166667	0	0	0	0	0	0
4440.333333	0	0	0	0	0	0
4440.5	0	0	0	0	0	0
4440.666667	0	0	0	0	0	0
4440.833333	0	0	0	0	0	0
4441	0	0	0	0	0	0
4441.166667	0	0	0	0	0	0
4441.333333	0	0	0	0	0	0
4441.5	0	0	0	0	0	0
4441.666667	0	0	0	0	0	0
4441.833333	0	0	0	0	0	0
4442	0	0	0	0	0	0
4442.166667	0	0	0	0	0	0
4442.333333	0	0	0	0	0	0
4442.5	0	0	0	0	0	0
4442.666667	3.6	1.8	0.9	0.9	0.9	0.9
4442.833333	7.2	3.6	1.8	1.8	1.8	1.8
4443	10.8	5.4	2.7	2.7	2.7	2.7
4443.166667	14.4	7.2	3.6	3.6	3.6	3.6
4443.333333	18	9	4.5	4.5	4.5	4.5
4443.5	21.6	10.8	5.4	5.4	5.4	5.4
4443.666667	74.4	37.2	18.6	18.6	18.6	18.6
4443.833333	127.2	63.6	31.8	31.8	31.8	31.8
4444	437.632	218.816	157.976	189.578	45.039	45.039
4444.166667	575.604	287.802	200.488	257.552	58.782	58.782
4444.333333	712.912	356.456	238.918	328.38	72.8072	72.8072
4444.5	849.367	424.684	273.349	401.772	87.1234	87.1234
4444.666667	949.694	474.847	294.272	465.261	95.0808	95.0808
4444.833333	1047.73	523.864	310.696	530.405	103.314	103.314
4445	1139.8	569.899	320.456	595.688	111.827	111.827
4445.166667	1229.61	614.804	326.874	661.485	120.625	120.625
4445.333333	1317.48	658.74	330.302	727.76	129.709	129.709
4445.5	1403.48	701.74	331.103	794.212	139.082	139.082
4445.666667	1623.88	811.942	358.696	943.712	160.738	160.738
4445.833333	1832.11	916.054	372.092	1093.89	183.062	183.062
4446	2035.82	1017.91	379.672	1244.04	206.056	206.056
4446.166667	2235.92	1117.96	383.051	1393.44	229.717	229.717
4446.333333	2433.28	1216.64	383.826	1541.37	254.041	254.041
4446.5	2628.73	1314.37	383.566	1687.12	279.022	279.022
4446.666667	2663.57	1331.78	365.207	1711.68	293.341	293.341
4446.833333	2701.51	1350.76	352.63	1733.43	307.727	307.727
4447	2743.01	1371.5	346.38	1752.28	322.173	322.173
4447.166667	2788.02	1394.01	346.515	1768.16	336.669	336.669
4447.333333	2836.47	1418.23	353.05	1781	351.208	351.208
4447.5	2888.24	1444.12	365.781	1790.73	365.956	365.781
4447.666667	2986.63	1493.31	400.306	1781.03	404.98	400.306
4447.833333	3087.28	1543.64	434.675	1768.4	449.529	434.675
4448	3190.63	1595.31	468.884	1753.81	499.054	468.884
4448.166667	3296.33	1648.16	502.928	1737.47	552.998	502.928
4448.333333	3404.01	1702	536.805	1719.6	610.794	536.805
4448.5	3511.6	1755.8	570.511	1698.96	671.622	570.511
4448.666667	3483.87	1741.94	599.631	1568.19	716.417	599.631
4448.833333	3457.19	1728.59	628.027	1444.83	756.305	628.027
4449	3431.15	1715.57	655.728	1329.52	790.168	655.728
4449.166667	3405.44	1702.72	682.762	1222.87	817.05	682.762
4449.333333	3377.93	1688.96	709.163	1123.43	836.169	709.163
4449.5	3350.13	1675.06	734.965	1033.28	846.921	734.965
4449.666667	3395.08	1697.54	723.939	1067.05	880.147	723.939
4449.833333	3434.25	1717.13	713.246	1091.27	916.491	713.246
4450	3468.94	1734.47	702.851	1106.05	957.19	702.851
4450.166667	3489.96	1744.98	692.718	1101.93	1002.59	692.718
4450.333333	3505.45	1752.73	682.809	1087.62	1052.21	682.809
4450.5	3516.06	1758.03	673.085	1064.38	1105.51	673.085
4450.666667	3303.51	1651.76	651.596	948.495	1051.82	651.596
4450.833333	3092.32	1546.16	629.693	841.549	991.387	629.693
4451	2887.19	1443.59	607.42	747.635	924.712	607.42
4451.166667	2693.33	1346.66	584.824	671.277	852.401	584.824
4451.333333	2509.21	1254.6	561.951	610.162	775.143	561.951
4451.5	2333.14	1166.57	538.851	561.739	693.704	538.851
4451.666667	2130.55	1065.28	495.932	507.354	631.334	495.932
4451.833333	1930.95	965.475	452.942	457.445	567.619	452.942
4452	1733.63	866.813	409.898	410.964	502.866	409.898
4452.166667	1537.86	768.932	366.816	366.835	437.397	366.816
4452.333333	1342.94	671.471	323.714	323.714	371.539	323.974
4452.5	1148.13	574.067	280.61	280.61	305.628	281.287
4452.666667	1463.08	731.541	339.889	339.889	437.034	346.271
4452.833333	1783.49	891.743	399.037	399.037	565.972	419.441
4453	2111.05	1055.52	457.999	457.999	691.432	503.617
4453.166667	2446.9	1223.45	516.72	516.72	812.462	600.995
4453.333333	2793.19	1396.6	575.145	575.145	928.18	714.722
4453.5	3151.66	1575.83	633.222	633.222	1037.78	847.437
4453.666667	3059.23	1529.62	616.174	616.174	968.472	858.416
4453.833333	2952.75	1476.38	599.215	599.215	901.086	853.235
4454	2842.54	1421.27	582.38	582.38	836.17	841.606
4454.166667	2728.36	1364.18	565.699	565.699	774.216	822.75
4454.333333	2610.02	1305.01	549.203	549.203	715.659	795.952
4454.5	2483.8	1241.9	532.923	532.923	660.869	757.088
4454.666667	2439.8	1219.9	518.571	518.571	638.123	764.541
4454.833333	2393.29	1196.65	504.158	504.158	612.523	772.456
4455	2346.23	1173.11	489.685	489.685	586.09	780.766
4455.166667	2298.93	1149.47	475.151	475.151	559.592	789.04
4455.333333	2249.19	1124.59	460.558	460.558	533.189	794.885
4455.5	2199.48	1099.74	445.905	445.905	507.046	800.62
4455.666667	2048.25	1024.12	422.202	422.202	464.593	739.252
4455.833333	1897.04	948.519	398.765	398.765	426.397	673.11
4456	1745.31	872.656	375.611	375.611	391.974	602.116
4456.166667	1593.17	796.583	352.755	352.755	361.151	526.505
4456.333333	1441.42	720.712	330.21	330.21	333.655	447.349
4456.5	1289.82	644.912	307.99	307.99	308.861	364.983
4456.666667	1241.34	620.669	295.561	295.561	295.902	354.312
4456.833333	1192.97	596.487	283.128	283.128	283.179	343.539
4457	1144.59	572.295	270.71	270.69	270.69	332.5
4457.166667	1096.32	548.162	258.513	258.247	258.247	321.317
4457.333333	1048.23	524.113	246.606	245.8	245.8	310.021
4457.5	1000.31	500.154	235.005	233.348	233.348	298.607
4457.666667	884.758	442.379	209.255	206.911	206.911	261.68
4457.833333	769.026	384.513	183.388	180.532	180.532	224.573
4458	652.968	326.484	157.198	154.211	154.211	187.349
4458.166667	536.555	268.278	130.589	127.948	127.948	150.069
4458.333333	419.725	209.863	103.437	101.745	101.745	112.799
4458.5	302.4	151.2	75.6	75.6	75.6	75.6
4458.666667	278.4	139.2	69.6	69.6	69.6	69.6
4458.833333	254.4	127.2	63.6	63.6	63.6	63.6
4459	230.4	115.2	57.6	57.6	57.6	57.6
4459.166667	206.4	103.2	51.6	51.6	51.6	51.6
4459.333333	182.4	91.2	45.6	45.6	45.6	45.6
4459.5	158.4	79.2	39.6	39.6	39.6	39.6
4459.666667	132	66	33	33	33	33
4459.833333	105.6	52.8	26.4	26.4	26.4	26.4
4460	79.2	39.6	19.8	19.8	19.8	19.8
4460.166667	52.8	26.4	13.2	13.2	13.2	13.2
4460.333333	26.4	13.2	6.6	6.6	6.6	6.6
4460.5	0	0	0	0	0	0
4460.666667	0	0	0	0	0	0
4460.833333	0	0	0	0	0	0
4461	0	0	0	0	0	0
4461.166667	0	0	0	0	0	0
4461.333333	0	0	0	0	0	0
4461.5	0	0	0	0	0	0
4461.666667	0	0	0	0	0	0
4461.833333	0	0	0	0	0	0
4462	0	0	0	0	0	0
4462.166667	0	0	0	0	0	0
4462.333333	0	0	0	0	0	0
4462.5	0	0	0	0	0	0
4462.666667	0	0	0	0	0	0
4462.833333	0	0	0	0	0	0
4463	0	0	0	0	0	0
4463.166667	0	0	0	0	0	0
4463.333333	0	0	0	0	0	0
4463.5	0	0	0	0	0	0
4463.666667	0	0	0	0	0	0
4463.833333	0	0	0	0	0	0
4464	0	0	0	0	0	0
4464.166667	0	0	0	0	0	0
4464.333333	0	0	0	0	0	0
4464.5	0	0	0	0	0	0
4464.666667	0	0	0	0	0	0
4464.833333	0	0	0	0	0	0
4465	0	0	0	0	0	0
4465.166667	0	0	0	0	0	0
4465.333333	0	0	0	0	0	0
4465.5	0	0	0	0	0	0
4465.666667	0	0	0	0	0	0
4465.833333	0	0	0	0	0	0
4466	0	0	0	0	0	0
4466.166667	0	0	0	0	0	0
4466.333333	0	0	0	0	0	0
4466.5	0	0	0	0	0	0
4466.666667	0	0	0	0	0	0
4466.833333	0	0	0	0	0	0
4467	0	0	0	0	0	0
4467.166667	0	0	0	0	0	0
4467.333333	0	0	0	0	0	0
4467.5	0	0	0	0	0	0
4467.666667	39.6	19.8	9.9	9.9	9.9	9.9
4467.833333	79.2	39.6	19.8	19.8	19.8	19.8
4468	287.079	143.539	103.484	124.187	29.7039	29.7039
4468.166667	382.319	191.159	132.524	169.892	39.9516	39.9516
4468.333333	477.129	238.565	158.895	217.466	50.3838	50.3838
4468.5	571.386	285.693	182.653	266.72	61.0063	61.0063
4468.666667	813.388	406.694	255.025	411.03	73.6667	73.6667
4468.833333	1051.83	525.915	316.856	560.931	87.0214	87.0214
4469	1281.3	640.649	365.056	714.069	101.086	101.086
4469.166667	1505.13	752.563	403.139	870.238	115.874	115.874
4469.333333	1723.69	861.847	431.974	1028.93	131.396	131.396
4469.5	1937.15	968.573	452.463	1189.37	147.659	147.659
4469.666667	2006.56	1003.28	438.111	1219.2	174.628	174.628
4469.833333	2068.13	1034.06	417.971	1246.98	201.59	201.59
4470	2132.45	1066.23	402.661	1272.71	228.539	228.539
4470.166667	2199.51	1099.76	392.145	1296.43	255.47	255.47
4470.333333	2269.25	1134.63	386.365	1318.13	282.378	282.378
4470.5	2341.6	1170.8	385.242	1337.85	309.257	309.257
4470.666667	2353.05	1176.52	374.978	1329.26	324.401	324.401
4470.833333	2367.72	1183.86	370.008	1318.86	339.429	339.429
4471	2385.68	1192.84	370.26	1306.74	354.337	354.337
4471.166667	2406.63	1203.32	375.348	1293.04	369.12	369.12
4471.333333	2430.3	1215.15	384.873	1277.88	383.775	383.775
4471.5	2456.41	1228.2	398.3	1261.38	398.424	398.3
4471.666667	2547.73	1273.86	434.225	1242.23	437.047	434.225
4471.833333	2640.48	1320.24	469.905	1222.23	478.434	469.905
4472	2734.91	1367.45	505.342	1202.31	521.915	505.342
4472.166667	2830.67	1415.34	540.538	1182.75	566.845	540.538
4472.333333	2927.44	1463.72	575.497	1163.83	612.607	575.497
4472.5	3024.13	1512.07	610.223	1145.22	658.47	610.223
4472.666667	2905.81	1452.9	603.146	1043.02	656.492	603.146
4472.833333	2788.02	1394.01	595.623	945.857	650.916	595.623
4473	2670.54	1335.27	587.671	854.113	641.091	587.671
4473.166667	2553.24	1276.62	579.31	768.146	626.472	579.31
4473.333333	2435.5	1217.75	570.562	687.749	606.63	570.562
4473.5	2318.17	1159.08	561.451	614.014	581.251	561.451
4473.666667	2378.5	1189.25	578.587	622.622	598.705	578.587
4473.833333	2438.52	1219.26	595.688	631.931	615.214	595.688
4474	2498.66	1249.33	612.755	641.949	631.205	612.755
4474.166667	2558.5	1279.25	629.79	652.168	646.754	629.79
4474.333333	2618.77	1309.38	646.797	663.302	661.873	646.797
4474.5	2679.48	1339.74	663.776	675.352	676.579	663.776
4474.666667	2561.07	1280.53	634.416	644.379	647.855	634.416
4474.833333	2442.46	1221.23	605.051	613.275	619.078	605.051
4475	2323.74	1161.87	575.683	582.127	590.245	575.683
4475.166667	2205.15	1102.57	546.31	551.179	561.349	546.31
4475.333333	2086.69	1043.35	516.934	520.439	532.386	516.934
4475.5	1968.36	984.179	487.553	489.9	503.352	487.553
4475.666667	1939.73	969.865	480.796	482.092	496.047	480.796
4475.833333	1911.32	955.662	474.033	474.614	488.643	474.033
4476	1883.11	941.556	467.266	467.429	481.151	467.266
4476.166667	1855.07	927.534	460.495	460.499	473.581	460.495
4476.333333	1827.17	913.584	453.72	453.72	465.945	453.783
4476.5	1799.38	899.691	446.942	446.942	458.256	447.242
4476.666667	1671.69	835.846	415.219	415.219	425.377	415.876
4476.833333	1544.05	772.024	383.495	383.495	392.477	384.579
4477	1416.4	708.198	351.771	351.771	359.573	353.28
4477.166667	1288.69	644.347	320.047	320.047	326.681	321.92
4477.333333	1160.94	580.471	288.325	288.325	293.815	290.476
4477.5	1033.11	516.554	256.604	256.604	260.991	258.908
4477.666667	1257.8	628.899	305	305	327.466	320.331
4477.833333	1484.54	742.269	353.294	353.294	392.178	385.771
4478	1713.55	856.775	401.471	401.471	454.933	455.674
4478.166667	1944.94	972.47	449.516	449.516	515.568	530.339
4478.333333	2178.81	1089.41	497.414	497.414	573.956	610.029
4478.5	2413.01	1206.5	545.153	545.153	630.001	692.699
4478.666667	2542.68	1271.34	553.197	553.197	661.656	774.634
4478.833333	2672.73	1336.37	560.835	560.835	685.279	865.781
4479	2803.44	1401.72	568.037	568.037	701.304	966.066
4479.166667	2935.16	1467.58	574.774	574.774	710.842	1074.77
4479.333333	3063.63	1531.82	581.02	581.02	714.36	1187.24
4479.5	3192.28	1596.14	586.749	586.749	712.46	1306.32
4479.666667	3172.8	1586.4	548.427	548.427	665.418	1410.53
4479.833333	3154.12	1577.06	509.419	509.419	613.129	1522.16
4480	3134.26	1567.13	469.699	469.699	555.922	1638.94
4480.166667	3111.36	1555.68	429.244	429.244	495.047	1757.82
4480.333333	3090.16	1545.08	388.034	388.034	433.311	1880.78
4480.5	3071.63	1535.81	346.053	346.053	372.533	2006.99
4480.666667	2915.04	1457.52	327.527	327.527	337.423	1922.56
4480.833333	2760.85	1380.42	309.482	309.482	310.999	1830.88
4481	2604.89	1302.44	292.285	291.942	291.942	1728.72
4481.166667	2450.54	1225.27	280.178	274.927	274.927	1620.51
4481.333333	2297.99	1148.99	273.458	258.456	258.456	1507.62
4481.5	2146.55	1073.27	270.801	242.544	242.544	1390.66
4481.666667	1964.3	982.151	265.593	222.507	222.507	1253.69
4481.833333	1781.19	890.593	261.066	203.12	203.12	1113.88
4482	1595.03	797.514	254.313	184.392	184.392	971.933
4482.166667	1405.6	702.799	244.362	166.331	166.331	828.573
4482.333333	1212.41	606.207	230.004	148.943	148.943	684.526
4482.5	1014.59	507.297	209.62	132.229	132.229	540.515
4482.666667	884.713	442.357	195.602	116.786	116.786	455.538
4482.833333	750.428	375.214	176.004	101.709	101.709	371.006
4483	611.739	305.869	150.441	86.9961	86.9961	287.305
4483.166667	470.478	235.239	120.372	72.6434	72.6434	204.82
4483.333333	326.583	163.292	85.3622	58.6467	58.6467	123.928
4483.5	180	90	45	45	45	45
4483.666667	150	75	37.5	37.5	37.5	37.5
4483.833333	120	60	30	30	30	30
4484	90	45	22.5	22.5	22.5	22.5
4484.166667	60	30	15	15	15	15
4484.333333	30	15	7.5	7.5	7.5	7.5
4484.5	0	0	0	0	0	0
4484.666667	0	0	0	0	0	0
4484.833333	0	0	0	0	0	0
4485	0	0	0	0	0	0
4485.166667	0	0	0	0	0	0
4485.333333	0	0	0	0	0	0
4485.5	0	0	0	0	0	0
4485.666667	0	0	0	0	0	0
4485.833333	0	0	0	0	0	0
4486	0	0	0	0	0	0
4486.166667	0	0	0	0	0	0
4486.333333	0	0	0	0	0	0
4486.5	0	0	0	0	0	0
4486.666667	0	0	0	0	0	0
4486.833333	0	0	0	0	0	0
4487	0	0	0	0	0	0
4487.166667	0	0	0	0	0	0
4487.333333	0	0	0	0	0	0
4487.5	0	0	0	0	0	0
4487.666667	0	0	0	0	0	0
4487.833333	0	0	0	0	0	0
4488	0	0	0	0	0	0
4488.166667	0	0	0	0	0	0
4488.333333	0	0	0	0	0	0
4488.5	0	0	0	0	0	0
4488.666667	0	0	0	0	0	0
4488.833333	0	0	0	0	0	0
4489	0	0	0	0	0	0
4489.166667	0	0	0	0	0	0
4489.333333	0	0	0	0	0	0
4489.5	0	0	0	0	0	0
4489.666667	0	0	0	0	0	0
4489.833333	0	0	0	0	0	0
4490	0	0	0	0	0	0
4490.166667	0	0	0	0	0	0
4490.333333	0	0	0	0	0	0
4490.5	0	0	0	0	0	0
4490.666667	0	0	0	0	0	0
4490.833333	0	0	0	0	0	0
4491	0	0	0	0	0	0
4491.166667	0	0	0	0	0	0
4491.333333	0	0	0	0	0	0
4491.5	0	0	0	0	0	0
4491.666667	39.6	19.8	9.9	9.9	9.9	9.9
4491.833333	79.2	39.6	19.8	19.8	19.8	19.8
4492	118.8	59.4	29.7	29.7	29.7	29.7
4492.166667	676.082	338.041	254.366	341.03	40.3432	40.3432
4492.333333	843.348	421.674	302.321	438.113	51.4571	51.4571
4492.5	1009.34	504.671	344.229	539.091	63.0113	63.0113
4492.666667	1034.86	517.43	328.468	540.002	83.1944	83.1944
4492.833333	1059.04	529.52	314.027	538.538	103.238	103.238
4493	1079.69	539.845	299.678	533.744	123.134	123.134
4493.166667	1101.55	550.777	288.873	526.925	142.878	142.878
4493.333333	1124.82	562.411	281.453	518.442	162.464	162.464
4493.5	1149.48	574.741	277.244	508.464	181.887	181.887
4493.666667	1389.27	694.635	315.338	705.471	184.231	184.231
4493.833333	1615.7	807.851	335.6	904.888	187.607	187.607
4494	1833.46	916.731	343.809	1105.61	192.02	192.02
4494.166667	2043.95	1021.97	342.471	1306.53	197.471	197.471
4494.333333	2248.54	1124.27	334.082	1506.54	203.957	203.957
4494.5	2448.57	1224.28	321.109	1704.52	211.47	211.47
4494.666667	2518.08	1259.04	302.071	1765.73	225.141	225.141
4494.833333	2589.89	1294.95	288.041	1823.7	239.078	239.078
4495	2664.71	1332.35	280.043	1878.13	253.27	253.27
4495.166667	2742.77	1371.39	278.64	1928.72	267.705	267.705
4495.333333	2824.28	1412.14	284.332	1975.2	282.371	282.371
4495.5	2909.34	1454.67	297.254	2017.29	297.546	297.254
4495.666667	2979.97	1489.99	322.538	2006.26	328.631	322.538
4495.833333	3052.55	1526.27	347.721	1990.38	366.725	347.721
4496	3128.35	1564.18	372.793	1971.41	411.363	372.793
4496.166667	3207.05	1603.53	397.749	1949.51	462.045	397.749
4496.333333	3288.27	1644.13	422.58	1924.86	518.246	422.58
4496.5	3369.75	1684.87	447.279	1896.26	578.927	447.279
4496.666667	3262.18	1631.09	454.094	1742.59	611.396	454.094
4496.833333	3155.76	1577.88	460.222	1594.88	640.439	460.222
4497	3050.05	1525.02	465.685	1453.78	664.895	465.685
4497.166667	2944.65	1472.33	470.508	1319.89	683.743	470.508
4497.333333	2836.32	1418.16	474.719	1190.77	696.112	474.719
4497.5	2725.66	1362.83	478.347	1067.68	701.29	478.347
4497.666667	2713.96	1356.98	484.334	1016.74	728.553	484.334
4497.833333	2696.58	1348.29	490.14	968.052	748.243	490.14
4498	2678.88	1339.44	495.771	921.732	765.603	495.771
4498.166667	2653.17	1326.58	501.232	869.712	780.99	501.232
4498.333333	2628.55	1314.28	506.529	821.177	794.318	506.529
4498.5	2605.92	1302.96	511.668	777.055	805.524	511.668
4498.666667	2690.55	1345.28	545.557	761.856	837.582	545.557
4498.833333	2773.46	1386.73	579.271	747.998	866.921	579.271
4499	2856.49	1428.24	612.824	737.214	893.626	612.824
4499.166667	2944.58	1472.29	646.228	734.305	917.821	646.228
4499.333333	3037.31	1518.65	679.497	738.653	939.658	679.497
4499.5	3134.06	1567.03	712.646	749.45	959.323	712.646
4499.666667	3020.15	1510.07	680.731	704.159	954.526	680.731
4499.833333	2907.58	1453.79	648.784	660.862	949.147	648.784
4500	2797.11	1398.55	616.787	620.712	942.822	616.787
4500.166667	2689.49	1344.74	584.721	584.855	935.19	584.721
4500.333333	2585.46	1292.73	552.569	552.569	925.9	554.424
4500.5	2485.77	1242.88	520.314	520.314	914.614	530.525
4500.666667	2574.2	1287.1	520.294	520.294	983.809	549.803
4500.833333	2671.95	1335.97	520.05	520.05	1048.79	583.061
4501	2779.87	1389.94	519.528	519.528	1108.58	632.237
4501.166667	2898.24	1449.12	518.673	518.673	1162.29	698.599
4501.333333	3030.04	1515.02	517.432	517.432	1209.11	786.062
4501.5	3176.97	1588.49	515.752	515.752	1248.33	897.141
4501.666667	3136	1568	503.511	503.511	1172.47	956.503
4501.833333	3073.09	1536.55	491.263	491.263	1097.12	993.441
4502	3007.31	1503.65	479.038	479.038	1022.93	1026.3
4502.166667	2938.43	1469.22	466.869	466.869	950.518	1054.18
4502.333333	2866.25	1433.12	454.788	454.788	880.437	1076.24
4502.5	2780.79	1390.4	442.826	442.826	813.201	1081.94
4502.666667	2774.61	1387.3	433.764	433.764	777.355	1129.72
4502.833333	2762.48	1381.24	424.564	424.564	735.331	1178.02
4503	2747.06	1373.53	415.228	415.228	689.965	1226.64
4503.166667	2730.88	1365.44	405.759	405.759	644.979	1274.39
4503.333333	2707.81	1353.91	396.159	396.159	600.799	1314.7
4503.5	2684.8	1342.4	386.433	386.433	557.851	1354.08
4503.666667	2747.77	1373.89	375.52	375.52	526.383	1470.35
4503.833333	2811.56	1405.78	364.045	364.045	491.92	1591.55
4504	2873.87	1436.94	351.992	351.992	454.67	1715.22
4504.166667	2932.55	1466.28	339.345	339.345	415.488	1838.37
4504.333333	2993.24	1496.62	326.092	326.092	377.356	1963.7
4504.5	3056.78	1528.39	312.222	312.222	341.809	2090.52
4504.666667	2911.98	1455.99	296.141	296.141	307.524	2012.17
4504.833333	2769.87	1384.93	280.53	280.53	282.456	1926.35
4505	2625.8	1312.9	265.671	265.414	265.414	1829.31
4505.166667	2483.81	1241.9	256.104	250.813	250.813	1726.08
4505.333333	2343.99	1171.99	252.57	236.748	236.748	1617.92
4505.5	2205.7	1102.85	253.779	223.234	223.234	1505.45
4505.666667	2319.24	1159.62	269.86	212.288	212.288	1624.81
4505.833333	2440.47	1220.24	296.818	200.674	200.674	1742.31
4506	2568.27	1284.14	334.247	188.395	188.395	1857.24
4506.166667	2703.72	1351.86	383.915	175.454	175.454	1968.9
4506.333333	2848.52	1424.26	448.201	161.86	161.86	2076.6
4506.5	3003.59	1501.79	528.688	147.622	147.622	2179.66
4506.666667	2980.63	1490.31	591.752	133.797	133.797	2121.28
4506.833333	2951.62	1475.81	651.516	120.191	120.191	2059.72
4507	2909.85	1454.93	701.016	106.811	106.811	1995.21
4507.166667	2867.28	1433.64	751.953	93.6647	93.6647	1927.99
4507.333333	2823.8	1411.9	803.973	80.7593	80.7593	1858.31
4507.5	2779.31	1389.65	856.71	68.1001	68.1001	1786.4
4507.666667	2339.39	1169.7	775.094	52.9658	52.9658	1458.37
4507.833333	1879.48	939.742	661.585	39.3978	39.3978	1139.1
4508	1414.59	707.296	527.788	27.3611	27.3611	832.082
4508.166667	945.726	472.863	373.185	16.8145	16.8145	538.912
4508.333333	473.871	236.936	197.36	7.71144	7.71144	261.089
4508.5	0	0	0	0	0	0
4508.666667	0	0	0	0	0	0
4508.833333	0	0	0	0	0	0
4509	0	0	0	0	0	0
4509.166667	0	0	0	0	0	0
4509.333333	0	0	0	0	0	0
4509.5	0	0	0	0	0	0
4509.666667	0	0	0	0	0	0
4509.833333	0	0	0	0	0	0
4510	0	0	0	0	0	0
4510.166667	0	0	0	0	0	0
4510.333333	0	0	0	0	0	0
4510.5	0	0	0	0	0	0
4510.666667	0	0	0	0	0	0
4510.833333	0	0	0	0	0	0
4511	0	0	0	0	0	0
4511.166667	0	0	0	0	0	0
4511.333333	0	0	0	0	0	0
4511.5	0	0	0	0	0	0
4511.666667	0	0	0	0	0	0
4511.833333	0	0	0	0	0	0
4512	0	0	0	0	0	0
4512.166667	0	0	0	0	0	0
4512.333333	0	0	0	0	0	0
4512.5	0	0	0	0	0	0
4512.666667	0	0	0	0	0	0
4512.833333	0	0	0	0	0	0
4513	0	0	0	0	0	0
4513.166667	0	0	0	0	0	0
4513.333333	0	0	0	0	0	0
4513.5	0	0	0	0	0	0
4513.666667	0	0	0	0	0	0
4513.833333	0	0	0	0	0	0
4514	0	0	0	0	0	0
4514.166667	0	0	0	0	0	0
4514.333333	0	0	0	0	0	0
4514.5	0	0	0	0	0	0
4514.666667	0	0	0	0	0	0
4514.833333	0	0	0	0	0	0
4515	0	0	0	0	0	0
4515.166667	0	0	0	0	0	0
4515.333333	0	0	0	0	0	0
4515.5	0	0	0	0	0	0
4515.666667	43.2	21.6	10.8	10.8	10.8	10.8
4515.833333	86.4	43.2	21.6	21.6	21.6	21.6
4516	129.6	64.8	32.4	32.4	32.4	32.4
4516.166667	466.51	233.255	164.997	214.352	43.5802	43.5802
4516.333333	582.155	291.077	197.368	274.668	55.0592	55.0592
4516.5	697.084	348.542	226.307	337.2	66.7882	66.7882
4516.666667	950.616	475.308	301.516	496.248	76.4265	76.4265
4516.833333	1199.89	599.945	364.636	661.554	86.8497	86.8497
4517	1438.62	719.31	412.267	830.202	98.0755	98.0755
4517.166667	1671.12	835.562	448.587	1002.3	110.119	110.119
4517.333333	1897.74	948.871	474.577	1177.18	122.991	122.991
4517.5	2118.64	1059.32	491.259	1353.98	136.7	136.7
4517.666667	2212.99	1106.5	472.522	1448.41	146.03	146.03
4517.833333	2293.97	1146.99	440.667	1541.73	155.788	155.788
4518	2374.18	1187.09	408.747	1633.5	165.97	165.97
4518.166667	2454.18	1227.09	377.785	1723.25	176.571	176.571
4518.333333	2534.48	1267.24	348.774	1810.54	187.584	187.584
4518.5	2615.59	1307.8	322.674	1894.92	199.001	199.001
4518.666667	2656.7	1328.35	292.296	1952.67	205.868	205.868
4518.833333	2700.58	1350.29	267.784	2006.76	213.02	213.02
4519	2747.96	1373.98	250.198	2056.87	220.446	220.446
4519.166667	2799.1	1399.55	240.138	2102.7	228.132	228.132
4519.333333	2854.19	1427.09	238.129	2143.93	236.064	236.064
4519.5	2913.34	1456.67	244.227	2180.27	244.617	244.227
4519.666667	2946.96	1473.48	251.372	2185.57	258.653	251.372
4519.833333	2982.11	1491.06	258.605	2183.51	281.391	258.605
4520	3020.85	1510.43	265.914	2176.26	312.764	265.914
4520.166667	3063	1531.5	273.281	2163.81	352.63	273.281
4520.333333	3108.29	1554.14	280.693	2146.13	400.768	280.693
4520.5	3154.23	1577.12	288.132	2121.83	456.139	288.132
4520.666667	3185.7	1592.85	295.807	2078.95	515.134	295.807
4520.833333	3218.3	1609.15	303.437	2031.63	579.799	303.437
4521	3251.63	1625.81	311.004	1980.01	649.607	311.004
4521.166667	3285.25	1642.63	318.495	1924.28	723.979	318.495
4521.333333	3312.81	1656.41	325.895	1858.74	802.281	325.895
4521.5	3331.91	1665.95	333.188	1781.7	883.83	333.188
4521.666667	3341.53	1670.76	341.414	1693.99	964.71	341.414
4521.833333	3334.03	1667.01	349.449	1605.43	1029.7	349.449
4522	3324.45	1662.23	357.285	1516.36	1093.52	357.285
4522.166667	3290.49	1645.24	364.91	1404.77	1155.9	364.91
4522.333333	3254.55	1627.28	372.315	1293.55	1216.38	372.315
4522.5	3219.98	1609.99	379.491	1186.51	1274.48	379.491
4522.666667	3183.66	1591.83	388.291	1081.55	1325.53	388.291
4522.833333	3135.68	1567.84	396.812	969.321	1372.74	396.812
4523	3078.92	1539.46	405.052	853.043	1415.78	405.052
4523.166667	3031.45	1515.72	413.008	751.109	1454.32	413.008
4523.333333	2993.35	1496.67	420.68	663.888	1488.1	420.68
4523.5	2964.16	1482.08	428.066	591.148	1516.88	428.066
4523.666667	2903.55	1451.78	426.846	521.669	1528.19	426.846
4523.833333	2855.12	1427.56	425.335	470.391	1534.05	425.335
4524	2818.72	1409.36	423.535	437.21	1534.44	423.535
4524.166667	2794.18	1397.09	421.451	421.938	1529.34	421.451
4524.333333	2781.33	1390.66	419.088	419.088	1518.84	424.309
4524.5	2779.92	1389.96	416.45	416.45	1503.04	443.978
4524.666667	2823.5	1411.75	429.063	429.063	1471	494.374
4524.833333	2876.15	1438.08	441.458	441.458	1434.87	558.364
4525	2934.54	1467.27	453.662	453.662	1395.28	631.93
4525.166667	2995.6	1497.8	465.703	465.703	1352.86	711.325
4525.333333	3060.79	1530.4	477.608	477.608	1308.27	797.311
4525.5	3129.21	1564.6	489.404	489.404	1262.14	888.256
4525.666667	3218.8	1609.4	488.89	488.89	1244.49	996.531
4525.833333	3291.03	1645.51	488.096	488.096	1222.63	1092.2
4526	3366.33	1683.16	487.013	487.013	1196.72	1195.58
4526.166667	3444.78	1722.39	485.637	485.637	1166.95	1306.55
4526.333333	3526.43	1763.22	483.961	483.961	1133.57	1424.94
4526.5	3595.36	1797.68	481.98	481.98	1096.83	1534.57
4526.666667	3604.48	1802.24	461.889	461.889	1045.76	1634.94
4526.833333	3605.98	1802.99	441.405	441.405	983.003	1740.17
4527	3601.11	1800.56	420.518	420.518	910.138	1849.94
4527.166667	3595.45	1797.73	399.221	399.221	834.952	1962.06
4527.333333	3577.67	1788.84	377.506	377.506	758.307	2064.35
4527.5	3560.01	1780	355.369	355.369	681.129	2168.14
4527.666667	3519.65	1759.82	342.692	342.692	606.561	2227.7
4527.833333	3480.33	1740.16	329.893	329.893	537.025	2283.52
4528	3438.53	1719.27	316.986	316.986	472.123	2332.44
4528.166667	3391.47	1695.74	303.983	303.983	411.765	2371.74
4528.333333	3347.62	1673.81	290.898	290.898	359.294	2406.53
4528.5	3307.42	1653.71	277.742	277.742	315.25	2436.68
4528.666667	3185.35	1592.68	268.958	268.958	283.816	2363.62
4528.833333	3066.7	1533.35	260.684	260.684	263.443	2281.89
4529	2945.58	1472.79	253.148	252.949	252.949	2186.54
4529.166667	2827.42	1413.71	251.794	245.777	245.777	2084.07
4529.333333	2712.24	1356.12	258.112	239.189	239.189	1975.75
4529.5	2599.36	1299.68	270.704	233.206	233.206	1862.24
4529.666667	2409.67	1204.83	280.365	222.288	222.288	1684.72
4529.833333	2218.86	1109.43	291.136	212.296	212.296	1503.13
4530	2024.11	1012.06	299.13	203.244	203.244	1318.5
4530.166667	1824.61	912.304	302.488	195.143	195.143	1131.83
4530.333333	1619.87	809.934	299.683	188	188	944.184
4530.5	1408.63	704.313	288.411	181.819	181.819	756.578
4530.666667	1216.66	608.33	266.531	157.742	157.742	634.645
4530.833333	1018.98	509.489	237.291	134.18	134.18	513.326
4531	814.703	407.351	199.275	111.131	111.131	393.167
4531.166667	606.839	303.42	154.956	88.5887	88.5887	274.706
4531.333333	395.297	197.649	103.725	66.5479	66.5479	158.476
4531.5	180	90	45	45	45	45
4531.666667	150	75	37.5	37.5	37.5	37.5
4531.833333	120	60	30	30	30	30
4532	90	45	22.5	22.5	22.5	22.5
4532.166667	60	30	15	15	15	15
4532.333333	30	15	7.5	7.5	7.5	7.5
4532.5	0	0	0	0	0	0
4532.666667	0	0	0	0	0	0
4532.833333	0	0	0	0	0	0
4533	0	0	0	0	0	0
4533.166667	0	0	0	0	0	0
4533.333333	0	0	0	0	0	0
4533.5	0	0	0	0	0	0
4533.666667	0	0	0	0	0	0
4533.833333	0	0	0	0	0	0
4534	0	0	0	0	0	0
4534.166667	0	0	0	0	0	0
4534.333333	0	0	0	0	0	0
4534.5	0	0	0	0	0	0
4534.666667	0	0	0	0	0	0
4534.833333	0	0	0	0	0	0
4535	0	0	0	0	0	0
4535.166667	0	0	0	0	0	0
4535.333333	0	0	0	0	0	0
4535.5	0	0	0	0	0	0
4535.666667	0	0	0	0	0	0
4535.833333	0	0	0	0	0	0
4536	0	0	0	0	0	0
4536.166667	0	0	0	0	0	0
4536.333333	0	0	0	0	0	0
4536.5	0	0	0	0	0	0
4536.666667	0	0	0	0	0	0
4536.833333	0	0	0	0	0	0
4537	0	0	0	0	0	0
4537.166667	0	0	0	0	0	0
4537.333333	0	0	0	0	0	0
4537.5	0	0	0	0	0	0
4537.666667	0	0	0	0	0	0
4537.833333	0	0	0	0	0	0
4538	0	0	0	0	0	0
4538.166667	0	0	0	0	0	0
4538.333333	0	0	0	0	0	0
4538.5	0	0	0	0	0	0
4538.666667	0	0	0	0	0	0
4538.833333	0	0	0	0	0	0
4539	0	0	0	0	0	0
4539.166667	0	0	0	0	0	0
4539.333333	0	0	0	0	0	0
4539.5	0	0	0	0	0	0
4539.666667	39.6	19.8	9.9	9.9	9.9	9.9
4539.833333	79.2	39.6	19.8	19.8	19.8	19.8
4540	118.8	59.4	29.7	29.7	29.7	29.7
4540.166667	284.96	142.48	92.054	113.416	39.7452	39.7452
4540.333333	355.783	177.892	111.24	144.677	49.9333	49.9333
4540.5	426.3	213.15	128.945	176.896	60.2294	60.2294
4540.666667	611.873	305.937	181.249	268.042	81.291	81.291
4540.833333	795.46	397.73	227.856	362.161	102.722	102.722
4541	974.2	487.1	267.27	457.871	124.529	124.529
4541.166667	1150.05	575.025	301.343	555.264	146.722	146.722
4541.333333	1323.14	661.568	330.535	653.994	169.304	169.304
4541.5	1493.54	746.768	355.327	753.65	192.28	192.28
4541.666667	1538.37	769.183	350.856	754.489	216.511	216.511
4541.833333	1580.67	790.337	345.639	753.826	240.604	240.604
4542	1625.69	812.845	344.768	751.808	264.557	264.557
4542.166667	1673.22	836.609	347.899	748.587	288.366	288.366
4542.333333	1723.05	861.525	354.678	744.317	312.028	312.028
4542.5	1774.98	887.488	364.741	739.155	335.54	335.54
4542.666667	1702.65	851.324	353.158	676.462	336.514	336.514
4542.833333	1633.22	816.61	345.474	613.44	337.153	337.153
4543	1566.21	783.105	340.845	550.446	337.46	337.46
4543.166667	1501.08	750.54	338.37	487.837	337.436	337.436
4543.333333	1437.32	718.658	337.175	425.967	337.087	337.087
4543.5	1374.44	687.221	336.416	365.187	336.423	336.416
4543.666667	1637.57	818.783	380.173	496.59	380.631	380.173
4543.833333	1900.12	950.062	424.395	624.509	426.825	424.395
4544	2162.65	1081.33	469.067	748.473	476.045	469.067
4544.166667	2425.59	1212.79	514.175	867.999	529.24	514.175
4544.333333	2689.29	1344.65	559.701	982.638	587.252	559.701
4544.5	2953.51	1476.76	605.626	1091.68	650.578	605.626
4544.666667	3059.29	1529.65	630.421	1108.71	689.744	630.421
4544.833333	3165.37	1582.69	655.235	1124.12	730.786	655.235
4545	3271.64	1635.82	680.06	1137.92	773.6	680.06
4545.166667	3378	1689	704.893	1150.15	818.059	704.893
4545.333333	3482.78	1741.39	729.726	1159.32	864.012	729.726
4545.5	3585	1792.5	754.555	1164.61	911.285	754.555
4545.666667	3395.66	1697.83	727.102	1060.25	881.206	727.102
4545.833333	3203.98	1601.99	699.308	962.849	842.514	699.308
4546	3014.31	1507.15	671.197	872.471	799.444	671.197
4546.166667	2823.81	1411.9	642.792	786.141	752.085	642.792
4546.333333	2637.13	1318.56	614.117	708.3	700.594	614.117
4546.5	2454.77	1227.39	585.198	639.187	645.189	585.198
4546.666667	2378.58	1189.29	570.851	611.28	625.603	570.851
4546.833333	2302.82	1151.41	556.443	584.926	605.012	556.443
4547	2227.84	1113.92	541.981	560.384	583.495	541.981
4547.166667	2154.5	1077.25	527.472	538.414	561.146	527.472
4547.333333	2082.58	1041.29	512.923	518.662	538.071	512.923
4547.5	2011.82	1005.91	498.341	500.753	514.388	498.341
4547.666667	2001.56	1000.78	494.077	496.089	517.316	494.077
4547.833333	1991.06	995.532	489.819	491.072	520.354	489.819
4548	1980.56	990.278	485.56	486.036	523.4	485.56
4548.166667	1970.26	985.131	481.297	481.319	526.348	481.297
4548.333333	1960.4	980.2	477.023	477.023	529.095	477.259
4548.5	1951.2	975.598	472.733	472.733	531.539	474.191
4548.666667	1889.51	944.754	458.72	458.72	510.171	461.896
4548.833333	1827.97	913.983	444.704	444.704	488.737	449.821
4549	1766.27	883.137	430.689	430.689	467.341	437.554
4549.166667	1704.19	852.093	416.68	416.68	446.082	424.742
4549.333333	1641.64	820.82	402.684	402.684	425.056	411.216
4549.5	1578.47	789.235	388.704	388.704	404.351	396.711
4549.666667	1389.64	694.818	342.19	342.19	354.717	350.539
4549.833333	1200.13	600.064	295.685	295.685	305.26	303.497
4550	1010.34	505.172	249.191	249.191	256.013	255.948
4550.166667	820.271	410.136	202.711	202.711	207.005	207.844
4550.333333	629.895	314.947	156.247	156.247	158.261	159.14
4550.5	439.2	219.6	109.8	109.8	109.8	109.8
4550.666667	386.4	193.2	96.6	96.6	96.6	96.6
4550.833333	333.6	166.8	83.4	83.4	83.4	83.4
4551	280.8	140.4	70.2	70.2	70.2	70.2
4551.166667	228	114	57	57	57	57
4551.333333	175.2	87.6	43.8	43.8	43.8	43.8
4551.5	122.4	61.2	30.6	30.6	30.6	30.6
4551.666667	449.742	224.871	75.0963	75.0963	93.6979	205.851
4551.833333	777.377	388.688	118.86	118.86	148.279	391.378
4552	1104.81	552.407	161.855	161.855	195.227	585.876
4552.166667	1430.67	715.335	204.051	204.051	235.266	787.302
4552.333333	1756.83	878.416	245.418	245.418	270.476	995.52
4552.5	2084.18	1042.09	285.93	285.93	302.696	1209.63
4552.666667	1917.24	958.621	268.351	268.351	274.703	1105.84
4552.833333	1751.27	875.636	251.308	251.308	252.487	996.168
4553	1583.81	791.903	234.855	234.821	234.821	879.31
4553.166667	1416.78	708.391	220.505	218.905	218.905	758.467
4553.333333	1249.59	624.797	208.028	203.576	203.576	634.412
4553.5	1081.43	540.713	195.93	188.848	188.848	507.8
4553.666667	977.14	488.57	183.497	172.868	172.868	447.908
4553.833333	872.292	436.146	170.876	157.129	157.129	387.157
4554	766.288	383.144	157.203	141.636	141.636	325.814
4554.166667	658.867	329.434	141.945	126.389	126.389	264.144
4554.333333	549.859	274.93	124.662	111.391	111.391	202.415
4554.5	438.933	219.466	104.755	96.6421	96.6421	140.894
4554.666667	387.156	193.578	93.8264	85.537	85.537	122.256
4554.833333	334.959	167.479	82.351	74.4716	74.4716	103.664
4555	282.238	141.119	70.1851	63.4456	63.4456	85.162
4555.166667	229.243	114.621	57.5355	52.4587	52.4587	66.7899
4555.333333	175.965	87.9827	44.3554	41.5104	41.5104	48.5891
4555.5	122.4	61.2	30.6	30.6	30.6	30.6
4555.666667	102	51	25.5	25.5	25.5	25.5
4555.833333	81.6	40.8	20.4	20.4	20.4	20.4
4556	61.2	30.6	15.3	15.3	15.3	15.3
4556.166667	40.8	20.4	10.2	10.2	10.2	10.2
4556.333333	20.4	10.2	5.1	5.1	5.1	5.1
4556.5	0	0	0	0	0	0
4556.666667	0	0	0	0	0	0
4556.833333	0	0	0	0	0	0
4557	0	0	0	0	0	0
4557.166667	0	0	0	0	0	0
4557.333333	0	0	0	0	0	0
4557.5	0	0	0	0	0	0
4557.666667	0	0	0	0	0	0
4557.833333	0	0	0	0	0	0
4558	0	0	0	0	0	0
4558.166667	0	0	0	0	0	0
4558.333333	0	0	0	0	0	0
4558.5	0	0	0	0	0	0
4558.666667	0	0	0	0	0	0
4558.833333	0	0	0	0	0	0
4559	0	0	0	0	0	0
4559.166667	0	0	0	0	0	0
4559.333333	0	0	0	0	0	0
4559.5	0	0	0	0	0	0
4559.666667	0	0	0	0	0	0
4559.833333	0	0	0	0	0	0
4560	0	0	0	0	0	0
4560.166667	0	0	0	0	0	0
4560.333333	0	0	0	0	0	0
4560.5	0	0	0	0	0	0
4560.666667	0	0	0	0	0	0
4560.833333	0	0	0	0	0	0
4561	0	0	0	0	0	0
4561.166667	0	0	0	0	0	0
4561.333333	0	0	0	0	0	0
4561.5	0	0	0	0	0	0
4561.666667	0	0	0	0	0	0
4561.833333	0	0	0	0	0	0
4562	0	0	0	0	0	0
4562.166667	0	0	0	0	0	0
4562.333333	0	0	0	0	0	0
4562.5	0	0	0	0	0	0
4562.666667	0	0	0	0	0	0
4562.833333	0	0	0	0	0	0
4563	0	0	0	0	0	0
4563.166667	0	0	0	0	0	0
4563.333333	0	0	0	0	0	0
4563.5	0	0	0	0	0	0
4563.666667	26.4	13.2	6.6	6.6	6.6	6.6
4563.833333	52.8	26.4	13.2	13.2	13.2	13.2
4564	79.2	39.6	19.8	19.8	19.8	19.8
4564.166667	105.6	52.8	26.4	26.4	26.4	26.4
4564.333333	132	66	33	33	33	33
4564.5	158.4	79.2	39.6	39.6	39.6	39.6
4564.666667	208.8	104.4	52.2	52.2	52.2	52.2
4564.833333	259.2	129.6	64.8	64.8	64.8	64.8
4565	309.6	154.8	77.4	77.4	77.4	77.4
4565.166667	360	180	90	90	90	90
4565.333333	410.4	205.2	102.6	102.6	102.6	102.6
4565.5	460.8	230.4	115.2	115.2	115.2	115.2
4565.666667	522.222	261.111	130.148	134.964	128.555	128.555
4565.833333	583.286	291.643	144.568	154.83	141.944	141.944
4566	644.039	322.019	158.542	174.762	155.367	155.367
4566.166667	704.526	352.263	172.154	194.723	168.825	168.825
4566.333333	764.796	382.398	185.486	214.675	182.317	182.317
4566.5	824.892	412.446	198.622	234.582	195.844	195.844
4566.666667	893.362	446.681	215.391	250.787	213.592	213.592
4566.833333	961.978	480.989	232.387	266.928	231.332	231.332
4567	1030.73	515.365	249.591	283.012	249.063	249.063
4567.166667	1099.6	549.802	266.98	299.049	266.787	266.787
4567.333333	1168.58	584.291	284.531	315.046	284.503	284.503
4567.5	1237.65	618.826	302.21	331.012	302.219	302.21
4567.666667	1225.68	612.842	299.535	326.964	299.648	299.535
4567.833333	1213.73	606.867	296.855	322.846	297.179	296.855
4568	1201.84	600.92	294.168	318.711	294.793	294.168
4568.166667	1189.99	594.995	291.475	314.566	292.474	291.475
4568.333333	1178.18	589.088	288.777	310.418	290.205	288.777
4568.5	1166.37	583.185	286.073	306.265	287.959	286.073
4568.666667	1511.78	755.89	343.571	465.772	358.867	343.571
4568.833333	1857.07	928.537	401.621	617.185	436.646	401.621
4569	2202.38	1101.19	460.195	760.059	521.929	460.195
4569.166667	2547.72	1273.86	519.26	894.007	615.188	519.26
4569.333333	2891.59	1445.8	578.784	1017.29	716.735	578.784
4569.5	3231.76	1615.88	638.731	1127.59	826.71	638.731
4569.666667	3303.03	1651.51	633.743	1158.24	877.301	633.743
4569.833333	3365.85	1682.92	629.083	1178.79	928.892	629.083
4570	3424.59	1712.3	624.712	1189.39	985.781	624.712
4570.166667	3467.7	1733.85	620.591	1179.01	1047.5	620.591
4570.333333	3503.27	1751.63	616.679	1156.4	1113.5	616.679
4570.5	3533.92	1766.96	612.934	1124.9	1183.15	612.934
4570.666667	3454.72	1727.36	610.28	1040.28	1193.88	610.28
4570.833333	3370.89	1685.45	607.379	955.21	1200.93	607.379
4571	3282.88	1641.44	604.243	870.151	1204.24	604.243
4571.166667	3202.43	1601.22	600.88	796.851	1203.82	600.88
4571.333333	3129.22	1564.61	597.302	734.916	1199.7	597.302
4571.5	3062.69	1531.35	593.522	683.703	1191.95	593.522
4571.666667	3109.31	1554.66	632.714	679.011	1164.87	632.714
4571.833333	3166.85	1583.43	671.646	690.738	1132.82	671.646
4572	3232.89	1616.44	710.373	715.324	1096.82	710.373
4572.166667	3304.81	1652.41	748.955	749.126	1057.78	748.955
4572.333333	3380.71	1690.36	787.449	787.449	1017.37	788.449
4572.5	3457.82	1728.91	825.916	825.916	976.417	829.568
4572.666667	3323.92	1661.96	786.805	786.805	953.377	796.932
4572.833333	3192.79	1596.39	747.629	747.629	929.074	768.455
4573	3064.53	1532.27	708.373	708.373	903.286	744.499
4573.166667	2939.03	1469.52	669.025	669.025	875.807	725.174
4573.333333	2817.14	1408.57	629.573	629.573	846.457	711.538
4573.5	2699.25	1349.63	590.004	590.004	815.077	704.168
4573.666667	2725.72	1362.86	575.155	575.155	831.076	744.33
4573.833333	2751.19	1375.6	560.034	560.034	842.488	788.636
4574	2781.85	1390.93	544.61	544.61	848.975	843.661
4574.166667	2817.93	1408.97	528.851	528.851	850.274	909.955
4574.333333	2859.63	1429.82	512.729	512.729	846.196	987.982
4574.5	2898.52	1449.26	496.216	496.216	836.627	1069.46
4574.666667	3027.63	1513.82	494.894	494.894	847.137	1190.71
4574.833333	3156.39	1578.19	493.009	493.009	847.204	1323.17
4575	3280.72	1640.36	490.525	490.525	833.025	1466.64
4575.166667	3405.5	1702.75	487.411	487.411	811.227	1619.45
4575.333333	3522.02	1761.01	483.637	483.637	782.616	1772.13
4575.5	3638.59	1819.29	479.175	479.175	748.161	1932.07
4575.666667	3327.1	1663.55	449.681	449.681	642.809	1784.93
4575.833333	3016.11	1508.06	421.074	421.074	553.02	1620.94
4576	2703.63	1351.82	393.411	393.411	477.61	1439.2
4576.166667	2388.84	1194.42	366.747	366.747	414.787	1240.56
4576.333333	2076.31	1038.15	341.13	341.13	364.892	1029.15
4576.5	1765.2	882.6	316.606	316.606	325.892	806.097
4576.666667	1644.24	822.121	303.26	303.26	306.728	730.994
4576.833333	1523.69	761.845	290.284	290.284	290.944	652.178
4577	1402.24	701.121	277.698	277.692	277.692	569.16
4577.166667	1280.85	640.424	266.075	265.493	265.493	483.786
4577.333333	1159	579.502	255.093	253.698	253.698	396.514
4577.5	1036.13	518.067	243.714	242.315	242.315	307.791
4577.666667	1086.99	543.493	233.75	227.315	227.315	398.607
4577.833333	1141.35	570.677	227.999	211.751	211.751	489.853
4578	1199.78	599.888	227.616	195.62	195.62	580.921
4578.166667	1262.71	631.357	233.672	178.921	178.921	671.2
4578.333333	1331.14	665.568	247.744	161.654	161.654	760.085
4578.5	1405.82	702.909	271.203	143.822	143.822	846.972
4578.666667	1216.95	608.477	256.106	125.794	125.794	709.261
4578.833333	1021.71	510.856	232.634	108.395	108.395	572.289
4579	817.914	408.957	197.947	91.6229	91.6229	436.721
4579.166667	609.767	304.883	155.605	75.472	75.472	303.218
4579.333333	397.16	198.58	104.86	59.9344	59.9344	172.431
4579.5	180	90	45	45	45	45
4579.666667	150	75	37.5	37.5	37.5	37.5
4579.833333	120	60	30	30	30	30
4580	90	45	22.5	22.5	22.5	22.5
4580.166667	60	30	15	15	15	15
4580.333333	30	15	7.5	7.5	7.5	7.5
4580.5	0	0	0	0	0	0
4580.666667	0	0	0	0	0	0
4580.833333	0	0	0	0	0	0
4581	0	0	0	0	0	0
4581.166667	0	0	0	0	0	0
4581.333333	0	0	0	0	0	0
4581.5	0	0	0	0	0	0
4581.666667	0	0	0	0	0	0
4581.833333	0	0	0	0	0	0
4582	0	0	0	0	0	0
4582.166667	0	0	0	0	0	0
4582.333333	0	0	0	0	0	0
4582.5	0	0	0	0	0	0
4582.666667	0	0	0	0	0	0
4582.833333	0	0	0	0	0	0
4583	0	0	0	0	0	0
4583.166667	0	0	0	0	0	0
4583.333333	0	0	0	0	0	0
4583.5	0	0	0	0	0	0
4583.666667	0	0	0	0	0	0
4583.833333	0	0	0	0	0	0
4584	0	0	0	0	0	0
