Time [h]	ConstructionInstance(id=2).FluxShortWaveRadiationA [W]	ConstructionInstance(id=11).FluxShortWaveRadiationA [W]	ConstructionInstance(id=2).FluxShortWaveRadiationB [W]	ConstructionInstance(id=11).FluxShortWaveRadiationB [W]	ConstructionInstance(id=2).SolarRadiationFluxA [W/m2]	ConstructionInstance(id=11).SolarRadiationFluxA [W/m2]	ConstructionInstance(id=2).SolarRadiationFluxB [W/m2]	ConstructionInstance(id=11).SolarRadiationFluxB [W/m2]
3840	0	0	0	0	0	0	0	0
3840.5	0	0	0	0	0	0	0	0
3841	0	0	0	0	0	0	0	0
3841.5	0	0	0	0	0	0	0	0
3842	0	0	0	0	0	0	0	0
3842.5	0	0	0	0	0	0	0	0
3843	0	0	0	0	0	0	0	0
3843.5	0	0	0	0	0	0	0	0
3844	12.7286	2.12143	35.64	5.94	0	0	5.94	5.94
3844.5	25.4572	4.24286	71.28	11.88	0	0	11.88	11.88
3845	27.7714	4.62857	77.76	12.96	0	0	12.96	12.96
3845.5	30.0857	5.01429	84.24	14.04	0	0	14.04	14.04
3846	35.6141	5.93568	99.7194	16.6199	0	0	16.6199	16.6199
3846.5	41.2106	6.86844	115.39	19.2316	0	0	19.2316	19.2316
3847	74.3933	12.3989	208.301	34.7169	0	0	34.7169	34.7169
3847.5	107.606	17.9344	301.297	50.2162	0	0	50.2162	50.2162
3848	137.03	22.8383	383.683	63.9471	0	0	63.9471	63.9471
3848.5	166.302	27.7171	465.647	77.6078	0	0	77.6078	77.6078
3849	228.258	38.0431	639.123	106.521	0	0	106.521	106.521
3849.5	292.297	48.7161	818.431	136.405	0	0	136.405	136.405
3850	308.102	51.3503	862.685	143.781	0	0	143.781	143.781
3850.5	325.945	54.3241	912.645	152.107	0	0	152.107	152.107
3851	285.686	47.6143	799.92	133.32	0	0	133.32	133.32
3851.5	242.533	40.4222	679.092	113.182	0	0	113.182	113.182
3852	227.578	37.9296	637.217	106.203	0	0	106.203	106.203
3852.5	212.503	35.4172	595.009	99.1681	0	0	99.1681	99.1681
3853	233.166	38.861	652.866	108.811	0	0	108.811	108.811
3853.5	253.334	42.2223	709.334	118.222	0	0	118.222	118.222
3854	333.691	55.6152	934.336	155.723	0	0	155.723	155.723
3854.5	399.809	66.6348	1119.47	186.578	0	0	186.578	186.578
3855	222.012	37.0021	621.635	103.606	0	0	103.606	103.606
3855.5	61.9346	10.3224	173.417	28.9028	0	0	28.9028	28.9028
3856	67.7001	11.2834	189.56	31.5934	0	0	31.5934	31.5934
3856.5	73.3061	12.2177	205.257	34.2095	0	0	34.2095	34.2095
3857	74.1254	12.3542	207.551	34.5919	0	0	34.5919	34.5919
3857.5	75.288	12.548	210.806	35.1344	0	0	35.1344	35.1344
3858	58.7255	9.78758	164.431	27.4052	0	0	27.4052	27.4052
3858.5	41.9291	6.98818	117.401	19.5669	0	0	19.5669	19.5669
3859	27.3632	4.56053	76.6169	12.7695	0	0	12.7695	12.7695
3859.5	13.1143	2.18572	36.72	6.12	0	0	6.12	6.12
3860	6.55715	1.09286	18.36	3.06	0	0	3.06	3.06
3860.5	0	0	0	0	0	0	0	0
3861	0	0	0	0	0	0	0	0
3861.5	0	0	0	0	0	0	0	0
3862	0	0	0	0	0	0	0	0
3862.5	0	0	0	0	0	0	0	0
3863	0	0	0	0	0	0	0	0
3863.5	0	0	0	0	0	0	0	0
3864	0	0	0	0	0	0	0	0
3864.5	0	0	0	0	0	0	0	0
3865	0	0	0	0	0	0	0	0
3865.5	0	0	0	0	0	0	0	0
3866	0	0	0	0	0	0	0	0
3866.5	0	0	0	0	0	0	0	0
3867	1.15714	0.192857	3.24	0.54	0	0	0.54	0.54
3867.5	2.31429	0.385714	6.48	1.08	0	0	1.08	1.08
3868	15.0429	2.50714	42.12	7.02	0	0	7.02	7.02
3868.5	28.2267	4.70445	79.0347	13.1724	0	0	13.1724	13.1724
3869	54.3252	9.0542	152.11	25.3517	0	0	25.3517	25.3517
3869.5	80.1873	13.3646	224.524	37.4207	0	0	37.4207	37.4207
3870	107.614	17.9357	301.321	50.2201	0	0	50.2201	50.2201
3870.5	135.335	22.5558	378.937	63.1562	0	0	63.1562	63.1562
3871	155.007	25.8346	434.021	72.3368	0	0	72.3368	72.3368
3871.5	174.308	29.0513	488.062	81.3436	0	0	81.3436	81.3436
3872	188.124	31.3539	526.746	87.791	0	0	87.791	87.791
3872.5	201.749	33.6248	564.897	94.1495	0	0	94.1495	94.1495
3873	229.201	38.2001	641.762	106.96	0	0	106.96	106.96
3873.5	257.879	42.9798	722.061	120.343	0	0	120.343	120.343
3874	271.659	45.2766	760.646	126.774	0	0	126.774	126.774
3874.5	286.01	47.6684	800.829	133.471	0	0	133.471	133.471
3875	427.864	71.3107	1198.02	199.67	0	0	199.67	199.67
3875.5	575.309	95.8849	1610.87	268.478	0	0	268.478	268.478
3876	445.892	74.3154	1248.5	208.083	0	0	208.083	208.083
3876.5	312.958	52.1597	876.283	146.047	0	0	146.047	146.047
3877	368.67	61.445	1032.28	172.046	0	0	172.046	172.046
3877.5	419.065	69.8441	1173.38	195.563	0	0	195.563	195.563
3878	388.321	64.7201	1087.3	181.216	0	0	181.216	181.216
3878.5	354.858	59.143	993.603	165.6	0	0	165.6	165.6
3879	226.452	37.742	634.066	105.678	0	0	105.678	105.678
3879.5	112.846	18.8077	315.969	52.6615	0	0	52.6615	52.6615
3880	114.534	19.089	320.696	53.4493	0	0	53.4493	53.4493
3880.5	114.113	19.0188	319.516	53.2527	0	0	53.2527	53.2527
3881	92.7713	15.4619	259.76	43.2933	0	0	43.2933	43.2933
3881.5	72.9753	12.1625	204.331	34.0551	0	0	34.0551	34.0551
3882	68.0192	11.3365	190.454	31.7423	0	0	31.7423	31.7423
3882.5	62.9946	10.4991	176.385	29.3975	0	0	29.3975	29.3975
3883	45.3062	7.55103	126.857	21.1429	0	0	21.1429	21.1429
3883.5	27.7714	4.62857	77.76	12.96	0	0	12.96	12.96
3884	13.8857	2.31429	38.88	6.48	0	0	6.48	6.48
3884.5	0	0	0	0	0	0	0	0
3885	0	0	0	0	0	0	0	0
3885.5	0	0	0	0	0	0	0	0
3886	0	0	0	0	0	0	0	0
3886.5	0	0	0	0	0	0	0	0
3887	0	0	0	0	0	0	0	0
3887.5	0	0	0	0	0	0	0	0
3888	0	0	0	0	0	0	0	0
3888.5	0	0	0	0	0	0	0	0
3889	0	0	0	0	0	0	0	0
3889.5	0	0	0	0	0	0	0	0
3890	0	0	0	0	0	0	0	0
3890.5	0	0	0	0	0	0	0	0
3891	0	0	0	0	0	0	0	0
3891.5	0	0	0	0	0	0	0	0
3892	19.2857	3.21429	54	9	0	0	9	9
3892.5	38.5714	6.42857	108	18	0	0	18	18
3893	45.9881	7.66469	128.767	21.4611	0	0	21.4611	21.4611
3893.5	53.4996	8.9166	149.799	24.9665	0	0	24.9665	24.9665
3894	91.0157	15.1693	254.844	42.474	0	0	42.474	42.474
3894.5	130.167	21.6945	364.467	60.7446	0	0	60.7446	60.7446
3895	182.075	30.3458	509.81	84.9683	0	0	84.9683	84.9683
3895.5	234.235	39.0392	655.858	109.31	0	0	109.31	109.31
3896	280.58	46.7633	785.624	130.937	0	0	130.937	130.937
3896.5	324.048	54.0079	907.333	151.222	0	0	151.222	151.222
3897	245.435	40.9059	687.219	114.536	0	0	114.536	114.536
3897.5	156.868	26.1446	439.229	73.2049	0	0	73.2049	73.2049
3898	154.771	25.7952	433.359	72.2265	0	0	72.2265	72.2265
3898.5	152.163	25.3605	426.056	71.0094	0	0	71.0094	71.0094
3899	166.022	27.6703	464.861	77.4769	0	0	77.4769	77.4769
3899.5	180.169	30.0282	504.474	84.079	0	0	84.079	84.079
3900	150.544	25.0906	421.522	70.2537	0	0	70.2537	70.2537
3900.5	120.685	20.1141	337.917	56.3195	0	0	56.3195	56.3195
3901	179.427	29.9045	502.395	83.7325	0	0	83.7325	83.7325
3901.5	237.94	39.6566	666.232	111.039	0	0	111.039	111.039
3902	186.277	31.0462	521.577	86.9295	0	0	86.9295	86.9295
3902.5	134.602	22.4337	376.886	62.8144	0	0	62.8144	62.8144
3903	171.835	28.6392	481.139	80.1898	0	0	80.1898	80.1898
3903.5	200.244	33.374	560.684	93.4473	0	0	93.4473	93.4473
3904	235.361	39.2268	659.011	109.835	0	0	109.835	109.835
3904.5	228.101	38.0169	638.684	106.447	0	0	106.447	106.447
3905	150.822	25.137	422.301	70.3835	0	0	70.3835	70.3835
3905.5	99.3313	16.5552	278.128	46.3546	0	0	46.3546	46.3546
3906	82.3393	13.7232	230.55	38.425	0	0	38.425	38.425
3906.5	66.4065	11.0678	185.938	30.9897	0	0	30.9897	30.9897
3907	44.9091	7.48485	125.745	20.9576	0	0	20.9576	20.9576
3907.5	27.0126	4.50211	75.6354	12.6059	0	0	12.6059	12.6059
3908	12.4562	2.07603	34.8773	5.81289	0	0	5.81289	5.81289
3908.5	0	0	0	0	0	0	0	0
3909	0	0	0	0	0	0	0	0
3909.5	0	0	0	0	0	0	0	0
3910	0	0	0	0	0	0	0	0
3910.5	0	0	0	0	0	0	0	0
3911	0	0	0	0	0	0	0	0
3911.5	0	0	0	0	0	0	0	0
3912	0	0	0	0	0	0	0	0
3912.5	0	0	0	0	0	0	0	0
3913	0	0	0	0	0	0	0	0
3913.5	0	0	0	0	0	0	0	0
3914	0	0	0	0	0	0	0	0
3914.5	0	0	0	0	0	0	0	0
3915	0	0	0	0	0	0	0	0
3915.5	0	0	0	0	0	0	0	0
3916	13.8857	2.31429	38.88	6.48	0	0	6.48	6.48
3916.5	27.9428	4.65714	78.2399	13.04	0	0	13.04	13.04
3917	41.7707	6.96178	116.958	19.493	0	0	19.493	19.493
3917.5	58.6572	9.7762	164.24	27.3734	0	0	27.3734	27.3734
3918	73.9572	12.3262	207.08	34.5134	0	0	34.5134	34.5134
3918.5	91.7324	15.2887	256.851	42.8084	0	0	42.8084	42.8084
3919	109.588	18.2646	306.845	51.1408	0	0	51.1408	51.1408
3919.5	131.266	21.8777	367.546	61.2576	0	0	61.2576	61.2576
3920	221.972	36.9953	621.52	103.587	0	0	103.587	103.587
3920.5	314.596	52.4327	880.869	146.812	0	0	146.812	146.812
3921	408.09	68.015	1142.65	190.442	0	0	190.442	190.442
3921.5	494.734	82.4557	1385.26	230.876	0	0	230.876	230.876
3922	489.324	81.5539	1370.11	228.351	0	0	228.351	228.351
3922.5	445.146	74.1911	1246.41	207.735	0	0	207.735	207.735
3923	352.999	58.8332	988.398	164.733	0	0	164.733	164.733
3923.5	249.073	41.5122	697.405	116.234	0	0	116.234	116.234
3924	299.784	49.964	839.396	139.899	0	0	139.899	139.899
3924.5	348.715	58.1191	976.401	162.733	0	0	162.733	162.733
3925	305.503	50.9172	855.409	142.568	0	0	142.568	142.568
3925.5	262.928	43.8213	736.198	122.7	0	0	122.7	122.7
3926	389.588	64.9314	1090.85	181.808	0	0	181.808	181.808
3926.5	478.14	79.6899	1338.79	223.132	0	0	223.132	223.132
3927	409.096	68.1827	1145.47	190.912	0	0	190.912	190.912
3927.5	335.205	55.8675	938.575	156.429	0	0	156.429	156.429
3928	253.719	42.2865	710.413	118.402	0	0	118.402	118.402
3928.5	166.886	27.8143	467.28	77.88	0	0	77.88	77.88
3929	111.255	18.5425	311.514	51.919	0	0	51.919	51.919
3929.5	91.5955	15.2659	256.467	42.7446	0	0	42.7446	42.7446
3930	82.7392	13.7899	231.67	38.6116	0	0	38.6116	38.6116
3930.5	72.0366	12.0061	201.703	33.6171	0	0	33.6171	33.6171
3931	51.1111	8.51851	143.111	23.8518	0	0	23.8518	23.8518
3931.5	30.2094	5.03489	84.5862	14.0977	0	0	14.0977	14.0977
3932	13.3818	2.2303	37.4691	6.24485	0	0	6.24485	6.24485
3932.5	2.31429	0.385714	6.48	1.08	0	0	1.08	1.08
3933	1.15714	0.192857	3.24	0.54	0	0	0.54	0.54
3933.5	0	0	0	0	0	0	0	0
3934	0	0	0	0	0	0	0	0
3934.5	0	0	0	0	0	0	0	0
3935	0	0	0	0	0	0	0	0
3935.5	0	0	0	0	0	0	0	0
3936	0	0	0	0	0	0	0	0
3936.5	0	0	0	0	0	0	0	0
3937	0	0	0	0	0	0	0	0
3937.5	0	0	0	0	0	0	0	0
3938	0	0	0	0	0	0	0	0
3938.5	0	0	0	0	0	0	0	0
3939	1.15714	0.192857	3.24	0.54	0	0	0.54	0.54
3939.5	2.31429	0.385714	6.48	1.08	0	0	1.08	1.08
3940	15.0503	2.50839	42.1409	7.02349	0	0	7.02349	7.02349
3940.5	28.8746	4.81244	80.849	13.4748	0	0	13.4748	13.4748
3941	50.7867	8.46445	142.203	23.7005	0	0	23.7005	23.7005
3941.5	74.3087	12.3848	208.064	34.6774	0	0	34.6774	34.6774
3942	96.7872	16.1312	271.004	45.1674	0	0	45.1674	45.1674
3942.5	120.484	20.0807	337.355	56.2259	0	0	56.2259	56.2259
3943	132.404	22.0674	370.732	61.7887	0	0	61.7887	61.7887
3943.5	147.559	24.5932	413.165	68.8608	0	0	68.8608	68.8608
3944	225.198	37.5331	630.556	105.093	0	0	105.093	105.093
3944.5	310.272	51.712	868.761	144.794	0	0	144.794	144.794
3945	396.26	66.0434	1109.53	184.921	0	0	184.921	184.921
3945.5	479.303	79.8838	1342.05	223.675	0	0	223.675	223.675
3946	546.105	91.0175	1529.09	254.849	0	0	254.849	254.849
3946.5	600.531	100.089	1681.49	280.248	0	0	280.248	280.248
3947	641.259	106.877	1795.53	299.254	0	0	299.254	299.254
3947.5	669.106	111.518	1873.5	312.25	0	0	312.25	312.25
3948	595.352	99.2253	1666.98	277.831	0	0	277.831	277.831
3948.5	511.053	85.1755	1430.95	238.491	0	0	238.491	238.491
3949	551.103	91.8505	1543.09	257.181	0	0	257.181	257.181
3949.5	582.956	97.1594	1632.28	272.046	0	0	272.046	272.046
3950	499.005	83.1676	1397.22	232.869	0	0	232.869	232.869
3950.5	422.003	70.3338	1181.61	196.935	0	0	196.935	196.935
3951	326.941	54.4901	915.434	152.572	0	0	152.572	152.572
3951.5	245.755	40.9591	688.113	114.685	0	0	114.685	114.685
3952	157.026	26.171	439.673	73.2788	0	0	73.2788	73.2788
3952.5	73.3019	12.217	205.245	34.2075	0	0	34.2075	34.2075
3953	53.6873	8.94788	150.324	25.0541	0	0	25.0541	25.0541
3953.5	34.4081	5.73469	96.3428	16.0571	0	0	16.0571	16.0571
3954	36.4463	6.07438	102.05	17.0083	0	0	17.0083	17.0083
3954.5	38.5714	6.42857	108	18	0	0	18	18
3955	33.1714	5.52857	92.88	15.48	0	0	15.48	15.48
3955.5	27.7714	4.62857	77.76	12.96	0	0	12.96	12.96
3956	15.0429	2.50714	42.12	7.02	0	0	7.02	7.02
3956.5	2.31429	0.385714	6.48	1.08	0	0	1.08	1.08
3957	1.15714	0.192857	3.24	0.54	0	0	0.54	0.54
3957.5	0	0	0	0	0	0	0	0
3958	0	0	0	0	0	0	0	0
3958.5	0	0	0	0	0	0	0	0
3959	0	0	0	0	0	0	0	0
3959.5	0	0	0	0	0	0	0	0
3960	0	0	0	0	0	0	0	0
3960.5	0	0	0	0	0	0	0	0
3961	0	0	0	0	0	0	0	0
3961.5	0	0	0	0	0	0	0	0
3962	0	0	0	0	0	0	0	0
3962.5	0	0	0	0	0	0	0	0
3963	0	0	0	0	0	0	0	0
3963.5	0	0	0	0	0	0	0	0
3964	7.32857	1.22143	20.52	3.42	0	0	3.42	3.42
3964.5	14.6571	2.44286	41.04	6.84	0	0	6.84	6.84
3965	19.3745	3.22908	54.2485	9.04141	0	0	9.04141	9.04141
3965.5	24.1864	4.03107	67.7219	11.287	0	0	11.287	11.287
3966	46.5992	7.76654	130.478	21.7463	0	0	21.7463	21.7463
3966.5	68.9834	11.4972	193.153	32.1922	0	0	32.1922	32.1922
3967	101.149	16.8582	283.218	47.2029	0	0	47.2029	47.2029
3967.5	133.355	22.2258	373.394	62.2323	0	0	62.2323	62.2323
3968	178.665	29.7776	500.263	83.3772	0	0	83.3772	83.3772
3968.5	227.758	37.9597	637.723	106.287	0	0	106.287	106.287
3969	315.41	52.5683	883.147	147.191	0	0	147.191	147.191
3969.5	445.754	74.2924	1248.11	208.019	0	0	208.019	208.019
3970	503.863	83.9771	1410.82	235.136	0	0	235.136	235.136
3970.5	555.62	92.6034	1555.74	259.289	0	0	259.289	259.289
3971	534.458	89.0763	1496.48	249.414	0	0	249.414	249.414
3971.5	501.154	83.5256	1403.23	233.872	0	0	233.872	233.872
3972	572.323	95.3871	1602.5	267.084	0	0	267.084	267.084
3972.5	635.116	105.853	1778.32	296.387	0	0	296.387	296.387
3973	662.599	110.433	1855.28	309.213	0	0	309.213	309.213
3973.5	673.705	112.284	1886.37	314.396	0	0	314.396	314.396
3974	600.778	100.13	1682.18	280.363	0	0	280.363	280.363
3974.5	519.079	86.5131	1453.42	242.237	0	0	242.237	242.237
3975	450.072	75.012	1260.2	210.034	0	0	210.034	210.034
3975.5	370.546	61.7576	1037.53	172.921	0	0	172.921	172.921
3976	282.596	47.0994	791.269	131.878	0	0	131.878	131.878
3976.5	187.165	31.1941	524.062	87.3436	0	0	87.3436	87.3436
3977	121.955	20.3258	341.474	56.9123	0	0	56.9123	56.9123
3977.5	104.026	17.3377	291.274	48.5457	0	0	48.5457	48.5457
3978	85.2043	14.2007	238.572	39.762	0	0	39.762	39.762
3978.5	67.3403	11.2234	188.553	31.4255	0	0	31.4255	31.4255
3979	47.8508	7.97514	133.982	22.3304	0	0	22.3304	22.3304
3979.5	29.1632	4.86054	81.657	13.6095	0	0	13.6095	13.6095
3980	13.2662	2.21103	37.1453	6.19088	0	0	6.19088	6.19088
3980.5	2.31429	0.385714	6.48	1.08	0	0	1.08	1.08
3981	1.15714	0.192857	3.24	0.54	0	0	0.54	0.54
3981.5	0	0	0	0	0	0	0	0
3982	0	0	0	0	0	0	0	0
3982.5	0	0	0	0	0	0	0	0
3983	0	0	0	0	0	0	0	0
3983.5	0	0	0	0	0	0	0	0
3984	0	0	0	0	0	0	0	0
3984.5	0	0	0	0	0	0	0	0
3985	0	0	0	0	0	0	0	0
3985.5	0	0	0	0	0	0	0	0
3986	0	0	0	0	0	0	0	0
3986.5	0	0	0	0	0	0	0	0
3987	1.15714	0.192857	3.24	0.54	0	0	0.54	0.54
3987.5	2.31429	0.385714	6.48	1.08	0	0	1.08	1.08
3988	18.1468	3.02446	50.8109	8.46849	0	0	8.46849	8.46849
3988.5	34.9321	5.82202	97.81	16.3017	0	0	16.3017	16.3017
3989	50.521	8.42016	141.459	23.5765	0	0	23.5765	23.5765
3989.5	67.6845	11.2808	189.517	31.5861	0	0	31.5861	31.5861
3990	85.4846	14.2474	239.357	39.8928	0	0	39.8928	39.8928
3990.5	105.172	17.5287	294.482	49.0803	0	0	49.0803	49.0803
3991	118.101	19.6836	330.684	55.114	0	0	55.114	55.114
3991.5	132.284	22.0474	370.396	61.7327	0	0	61.7327	61.7327
3992	218.754	36.459	612.512	102.085	0	0	102.085	102.085
3992.5	305.744	50.9574	856.084	142.681	0	0	142.681	142.681
3993	387.752	64.6253	1085.71	180.951	0	0	180.951	180.951
3993.5	467.923	77.9872	1310.19	218.364	0	0	218.364	218.364
3994	534.271	89.0452	1495.96	249.326	0	0	249.326	249.326
3994.5	591.249	98.5415	1655.5	275.916	0	0	275.916	275.916
3995	639.002	106.5	1789.21	298.201	0	0	298.201	298.201
3995.5	675.456	112.576	1891.28	315.213	0	0	315.213	315.213
3996	674.421	112.404	1888.38	314.73	0	0	314.73	314.73
3996.5	660.449	110.075	1849.26	308.209	0	0	308.209	308.209
3997	607.004	101.167	1699.61	283.269	0	0	283.269	283.269
3997.5	546.003	91.0005	1528.81	254.801	0	0	254.801	254.801
3998	378.487	63.0812	1059.76	176.627	0	0	176.627	176.627
3998.5	239.441	39.9069	670.435	111.739	0	0	111.739	111.739
3999	265.388	44.2313	743.085	123.848	0	0	123.848	123.848
3999.5	284.195	47.3658	795.745	132.624	0	0	132.624	132.624
4000	256.438	42.7397	718.028	119.671	0	0	119.671	119.671
4000.5	203.345	33.8908	569.365	94.8941	0	0	94.8941	94.8941
4001	146.566	24.4276	410.384	68.3974	0	0	68.3974	68.3974
4001.5	111.462	18.577	312.093	52.0155	0	0	52.0155	52.0155
4002	87.4747	14.5791	244.929	40.8215	0	0	40.8215	40.8215
4002.5	64.55	10.7583	180.74	30.1233	0	0	30.1233	30.1233
4003	44.3436	7.39061	124.162	20.6937	0	0	20.6937	20.6937
4003.5	23.2018	3.86697	64.9652	10.8275	0	0	10.8275	10.8275
4004	11.0824	1.84707	31.0308	5.17179	0	0	5.17179	5.17179
4004.5	0	0	0	0	0	0	0	0
4005	0	0	0	0	0	0	0	0
4005.5	0	0	0	0	0	0	0	0
4006	0	0	0	0	0	0	0	0
4006.5	0	0	0	0	0	0	0	0
4007	0	0	0	0	0	0	0	0
4007.5	0	0	0	0	0	0	0	0
4008	0	0	0	0	0	0	0	0
4008.5	0	0	0	0	0	0	0	0
4009	0	0	0	0	0	0	0	0
4009.5	0	0	0	0	0	0	0	0
4010	0	0	0	0	0	0	0	0
4010.5	0	0	0	0	0	0	0	0
4011	1.15714	0.192857	3.24	0.54	0	0	0.54	0.54
4011.5	2.31429	0.385714	6.48	1.08	0	0	1.08	1.08
4012	17.3599	2.89332	48.6077	8.10128	0	0	8.10128	8.10128
4012.5	32.7475	5.45792	91.693	15.2822	0	0	15.2822	15.2822
4013	38.1554	6.35923	106.835	17.8058	0	0	17.8058	17.8058
4013.5	43.2	7.2	120.96	20.16	0	0	20.16	20.16
4014	74.3891	12.3982	208.29	34.7149	0	0	34.7149	34.7149
4014.5	105.753	17.6255	296.109	49.3514	0	0	49.3514	49.3514
4015	153.151	25.5252	428.824	71.4707	0	0	71.4707	71.4707
4015.5	200.601	33.4334	561.682	93.6136	0	0	93.6136	93.6136
4016	163.011	27.1685	456.432	76.0719	0	0	76.0719	76.0719
4016.5	123.057	20.5095	344.56	57.4266	0	0	57.4266	57.4266
4017	130.017	21.6694	364.046	60.6744	0	0	60.6744	60.6744
4017.5	136.93	22.8216	383.404	63.9006	0	0	63.9006	63.9006
4018	180.287	30.0478	504.804	84.1339	0	0	84.1339	84.1339
4018.5	223.895	37.3158	626.905	104.484	0	0	104.484	104.484
4019	199.625	33.2708	558.949	93.1582	0	0	93.1582	93.1582
4019.5	175.209	29.2015	490.584	81.7641	0	0	81.7641	81.7641
4020	142.604	23.7674	399.292	66.5487	0	0	66.5487	66.5487
4020.5	109.855	18.3091	307.593	51.2656	0	0	51.2656	51.2656
4021	124.754	20.7923	349.31	58.2183	0	0	58.2183	58.2183
4021.5	139.537	23.2561	390.703	65.1171	0	0	65.1171	65.1171
4022	187.446	31.241	524.849	87.4748	0	0	87.4748	87.4748
4022.5	234.707	39.1178	657.178	109.53	0	0	109.53	109.53
4023	257.267	42.8779	720.348	120.058	0	0	120.058	120.058
4023.5	273.327	45.5545	765.315	127.552	0	0	127.552	127.552
4024	175.908	29.3179	492.542	82.0903	0	0	82.0903	82.0903
4024.5	86.4198	14.4033	241.975	40.3292	0	0	40.3292	40.3292
4025	70.167	11.6945	196.468	32.7446	0	0	32.7446	32.7446
4025.5	54.1661	9.02768	151.665	25.2775	0	0	25.2775	25.2775
4026	35.4818	5.91363	99.349	16.5582	0	0	16.5582	16.5582
4026.5	16.9714	2.82857	47.52	7.92	0	0	7.92	7.92
4027	13.3876	2.23126	37.4852	6.24753	0	0	6.24753	6.24753
4027.5	9.27321	1.54554	25.965	4.3275	0	0	4.3275	4.3275
4028	4.38395	0.730659	12.2751	2.04585	0	0	2.04585	2.04585
4028.5	0	0	0	0	0	0	0	0
4029	0	0	0	0	0	0	0	0
4029.5	0	0	0	0	0	0	0	0
4030	0	0	0	0	0	0	0	0
4030.5	0	0	0	0	0	0	0	0
4031	0	0	0	0	0	0	0	0
4031.5	0	0	0	0	0	0	0	0
4032	0	0	0	0	0	0	0	0
4032.5	0	0	0	0	0	0	0	0
4033	0	0	0	0	0	0	0	0
4033.5	0	0	0	0	0	0	0	0
4034	0	0	0	0	0	0	0	0
4034.5	0	0	0	0	0	0	0	0
4035	1.15714	0.192857	3.24	0.54	0	0	0.54	0.54
4035.5	2.31429	0.385714	6.48	1.08	0	0	1.08	1.08
4036	13.1143	2.18572	36.72	6.12	0	0	6.12	6.12
4036.5	23.9143	3.98572	66.96	11.16	0	0	11.16	11.16
4037	42.1317	7.02194	117.969	19.6614	0	0	19.6614	19.6614
4037.5	60.4435	10.0739	169.242	28.207	0	0	28.207	28.207
4038	97.5786	16.2631	273.22	45.5367	0	0	45.5367	45.5367
4038.5	136.141	22.6902	381.196	63.5326	0	0	63.5326	63.5326
4039	158.94	26.4899	445.031	74.1718	0	0	74.1718	74.1718
4039.5	185.938	30.9897	520.628	86.7713	0	0	86.7713	86.7713
4040	236.688	39.448	662.727	110.454	0	0	110.454	110.454
4040.5	302.876	50.4793	848.052	141.342	0	0	141.342	141.342
4041	394.463	65.7438	1104.5	184.083	0	0	184.083	184.083
4041.5	486.747	81.1246	1362.89	227.149	0	0	227.149	227.149
4042	564.029	94.0048	1579.28	263.214	0	0	263.214	263.214
4042.5	630.373	105.062	1765.05	294.174	0	0	294.174	294.174
4043	669.932	111.655	1875.81	312.635	0	0	312.635	312.635
4043.5	693.908	115.651	1942.94	323.824	0	0	323.824	323.824
4044	720.903	120.151	2018.53	336.422	0	0	336.422	336.422
4044.5	732.571	122.095	2051.2	341.866	0	0	341.866	341.866
4045	712.478	118.746	1994.94	332.49	0	0	332.49	332.49
4045.5	677.076	112.846	1895.81	315.969	0	0	315.969	315.969
4046	621.298	103.55	1739.63	289.939	0	0	289.939	289.939
4046.5	552.924	92.1539	1548.19	258.031	0	0	258.031	258.031
4047	474.334	79.0557	1328.14	221.356	0	0	221.356	221.356
4047.5	382.77	63.7949	1071.76	178.626	0	0	178.626	178.626
4048	281.425	46.9042	787.991	131.332	0	0	131.332	131.332
4048.5	171.727	28.6212	480.837	80.1394	0	0	80.1394	80.1394
4049	103.255	17.2092	289.115	48.1858	0	0	48.1858	48.1858
4049.5	91.9938	15.3323	257.583	42.9304	0	0	42.9304	42.9304
4050	75.2492	12.5415	210.698	35.1163	0	0	35.1163	35.1163
4050.5	59.3171	9.88618	166.088	27.6813	0	0	27.6813	27.6813
4051	44.785	7.46417	125.398	20.8997	0	0	20.8997	20.8997
4051.5	30.3031	5.05051	84.8486	14.1414	0	0	14.1414	14.1414
4052	12.8018	2.13363	35.845	5.97416	0	0	5.97416	5.97416
4052.5	2.31429	0.385714	6.48	1.08	0	0	1.08	1.08
4053	1.15714	0.192857	3.24	0.54	0	0	0.54	0.54
4053.5	0	0	0	0	0	0	0	0
4054	0	0	0	0	0	0	0	0
4054.5	0	0	0	0	0	0	0	0
4055	0	0	0	0	0	0	0	0
4055.5	0	0	0	0	0	0	0	0
4056	0	0	0	0	0	0	0	0
4056.5	0	0	0	0	0	0	0	0
4057	0	0	0	0	0	0	0	0
4057.5	0	0	0	0	0	0	0	0
4058	0	0	0	0	0	0	0	0
4058.5	0	0	0	0	0	0	0	0
4059	1.15714	0.192857	3.24	0.54	0	0	0.54	0.54
4059.5	2.31429	0.385714	6.48	1.08	0	0	1.08	1.08
4060	11.9851	1.99752	33.5583	5.59306	0	0	5.59306	5.59306
4060.5	23.6977	3.94962	66.3536	11.0589	0	0	11.0589	11.0589
4061	36.5331	6.08885	102.293	17.0488	0	0	17.0488	17.0488
4061.5	51.7544	8.62573	144.912	24.1521	0	0	24.1521	24.1521
4062	65.4827	10.9138	183.352	30.5586	0	0	30.5586	30.5586
4062.5	80.5454	13.4242	225.527	37.5879	0	0	37.5879	37.5879
4063	92.4967	15.4161	258.991	43.1651	0	0	43.1651	43.1651
4063.5	105.242	17.5403	294.677	49.1129	0	0	49.1129	49.1129
4064	200.566	33.4276	561.584	93.5973	0	0	93.5973	93.5973
4064.5	299.112	49.852	837.514	139.586	0	0	139.586	139.586
4065	400.047	66.6745	1120.13	186.689	0	0	186.689	186.689
4065.5	480.229	80.0382	1344.64	224.107	0	0	224.107	224.107
4066	520.119	86.6865	1456.33	242.722	0	0	242.722	242.722
4066.5	529.086	88.1811	1481.44	246.907	0	0	246.907	246.907
4067	613.409	102.235	1717.55	286.258	0	0	286.258	286.258
4067.5	707.586	117.931	1981.24	330.207	0	0	330.207	330.207
4068	684.634	114.106	1916.98	319.496	0	0	319.496	319.496
4068.5	648.615	108.102	1816.12	302.687	0	0	302.687	302.687
4069	602.818	100.47	1687.89	281.315	0	0	281.315	281.315
4069.5	553.377	92.2294	1549.45	258.242	0	0	258.242	258.242
4070	459.077	76.5128	1285.41	214.236	0	0	214.236	214.236
4070.5	368.434	61.4057	1031.62	171.936	0	0	171.936	171.936
4071	298.212	49.7019	834.992	139.165	0	0	139.165	139.165
4071.5	241.526	40.2543	676.272	112.712	0	0	112.712	112.712
4072	249.638	41.6063	698.986	116.498	0	0	116.498	116.498
4072.5	218.159	36.3598	610.845	101.807	0	0	101.807	101.807
4073	155.361	25.8935	435.011	72.5018	0	0	72.5018	72.5018
4073.5	119.511	19.9185	334.631	55.7719	0	0	55.7719	55.7719
4074	90.2587	15.0431	252.724	42.1207	0	0	42.1207	42.1207
4074.5	61.0846	10.1808	171.037	28.5061	0	0	28.5061	28.5061
4075	45.0182	7.50304	126.051	21.0085	0	0	21.0085	21.0085
4075.5	29.4426	4.9071	82.4393	13.7399	0	0	13.7399	13.7399
4076	12.6677	2.11128	35.4695	5.91158	0	0	5.91158	5.91158
4076.5	2.31429	0.385714	6.48	1.08	0	0	1.08	1.08
4077	1.15714	0.192857	3.24	0.54	0	0	0.54	0.54
4077.5	0	0	0	0	0	0	0	0
4078	0	0	0	0	0	0	0	0
4078.5	0	0	0	0	0	0	0	0
4079	0	0	0	0	0	0	0	0
4079.5	0	0	0	0	0	0	0	0
4080	0	0	0	0	0	0	0	0
