Time [h]	Room 1.ConstructionHeatConductionLoad [W]	Room 2.ConstructionHeatConductionLoad [W]	Ground Floor.ActiveLayerThermalLoad [W]	Upper Floor.ActiveLayerThermalLoad [W]	Model(id=801).TotalHeatLoad [W]
0	0	0	0	0	269.361
1	1.3638	1.82765	73.8497	69.5166	241.737
2	-0.969946	-1.36867	94.9859	87.3847	222.273
3	-3.86513	-5.5426	141.214	156.914	398.127
4	11.0415	-1.91247	347.241	150.15	173.06
5	-11.4928	4.56722	71.0538	1818.68	2408.53
6	-4.94355	-16.8112	191.175	131.982	193.146
7	20.6689	6.92008	2088.58	258	2282.8
8	-16.7873	11.4505	71.3727	1801.77	2076.66
9	-0.995123	-21.9794	283.854	165.604	251.105
10	23.8038	-4.62322	1545.82	213.63	498.716
11	-18.2205	25.4729	1123.74	954.38	2729.67
12	-12.6758	1.14602	142.975	1624.99	1869.55
13	11.4933	-22.4426	544.466	201.323	396.464
14	15.9519	-4.09709	1947.92	250.869	2085.08
15	-19.7895	22.6021	858.16	948.191	2737.98
16	-11.9623	5.02256	159.582	1512.58	1665.46
17	15.985	-22.0483	663.115	937.646	2021.72
18	13.8785	-6.76946	1881.85	237.266	2014.95
19	-19.2919	18.8318	912.03	877.17	2602.72
20	-10.835	9.56328	169.054	1416.17	1514.67
21	12.6505	-19.4969	565.845	1111.5	1740.31
22	15.3187	-8.30891	1838.61	225.465	1956.08
23	-16.9451	15.5411	1184.8	700.349	2372.91
24	-12.9904	11.1307	139.342	1335.36	1417.41
25	8.89505	-12.2028	451.457	1217.07	1531.11
26	18.262	-12.4636	1805.89	182.331	1900.84
27	-14.2351	13.392	1340.31	576.927	2226.81
28	-13.8488	11.7614	121.199	1274.7	1348.87
29	4.06881	-7.91063	345.714	1209.71	1432.32
30	21.1742	-14.606	1302.97	166.492	295.48
31	-6.40632	8.54515	1554.9	422.643	2053.29
32	-14.9486	13.5181	102.736	1225.91	1293.14
33	-0.114887	-6.33454	268.172	1178.6	1381.57
34	22.2461	-14.529	1172.77	165.448	244.909
35	-6.7734	6.88446	1517.03	384.125	2046.58
36	-14.5995	13.7006	96.13	1193.36	1257.86
37	-0.830477	-4.08957	247.228	1165.09	1335.19
38	21.4327	-15.1837	1043	162.231	239.937
39	-5.10062	5.2823	1526.61	334.194	2018.01
40	-14.2332	13.9912	93.2313	1170.11	1233.11
41	0.64558	-3.86789	257.656	1144.67	1311.56
42	21.5281	-14.5436	1075.32	153.144	224.92
43	-7.541	7.54607	1448.01	365.004	2052.02
44	-13.5018	12.9967	93.3995	1155.76	1221.33
45	0.892477	-8.64883	256.558	1086.26	1334.95
46	21.4281	-11.7693	1130.53	163.267	197.558
47	-11.9613	9.72199	1243.77	407.537	2165.98
48	-12.1958	12.275	99.8107	1144.62	1211.08
49	3.8872	-9.61486	297.205	1058.87	1335.21
50	19.2851	-11.7935	1302.99	144.827	448.609
51	-12.2121	8.472	1180.93	377.804	2193.59
52	-12.062	12.7423	97.2655	1135.06	1201.35
53	4.1993	-8.65913	295.032	1058.55	1318.63
54	18.5052	-12.5084	1701.19	134.266	1818.88
55	-14.2918	8.45057	882.951	370.251	2363.31
56	-10.7669	12.0004	106.131	1131.11	1198.58
57	7.55837	-11.5407	351.904	1003.64	1350.11
58	15.3078	-10.202	1696.62	145.54	1830.31
59	-14.6895	11.0181	217.961	441.639	866.816
60	-9.30336	11.2485	117.274	1126.22	1196.3
61	10.3344	-14.0982	412.194	932.719	1392.2
62	12.8857	-8.26242	1683.53	156.556	1841.67
63	-14.5735	13.1995	149.697	506.132	420.047
64	-8.70543	8.57144	121.72	1125.26	1206.85
65	9.89038	-14.852	406.014	866.144	1427.52
66	12.6809	-7.39334	1681.15	161.188	1842.73
67	-14.6381	15.5298	112.755	592.293	248.754
68	-5.54935	5.26976	153.515	1120.84	1217.83
69	18.5641	-16.7761	723.54	452.838	1668.23
70	-1.31553	-1.78095	1530.21	210.056	1960.81
71	-13.3326	15.9848	78.0756	1102.9	1170.35
72	-2.01861	-2.228	194.66	1095.36	1256.49
73	21.2317	-14.2204	914.228	140.71	199.185
74	-10.7744	5.60689	1225.46	302.088	2150.96
75	-11.6175	13.6397	91.842	1113.6	1177.63
76	4.97982	-6.64515	296.322	1058.39	1287.9
77	17.947	-12.5986	1655.73	126.729	1834.63
78	-13.4248	7.15189	880.642	331.053	2351.8
79	-10.3903	12.6303	102.903	1116.39	1182.97
80	12.3131	-14.0106	442.954	919.405	1388.68
81	5.45601	-8.1624	1618.89	154.56	1891.79
82	-13.7425	12.6667	120.199	479.642	204.824
83	-3.97305	8.70074	166.424	1119.29	1200.14
84	19.4439	-17.181	754.944	602.359	1579.21
85	-4.52101	-2.76485	1453.29	200.172	2008.15
86	-12.8689	16.246	90.7599	788.307	235.499
87	-1.64597	0.25528	196.328	1102.8	1239.99
88	20.1118	-14.5714	864.462	138.77	199.339
89	-7.26671	5.20916	1375.57	293.081	2056.96
90	-12.2456	14.0951	85.3589	1110.47	1173.24
91	3.74787	-8.29931	276.068	1038.42	1301.13
92	18.9199	-11.6923	1317.76	129.702	314.98
93	-14.2515	9.97747	372.429	394.398	2640.24
94	-8.81476	10.7854	116.573	1117.16	1189.97
95	13.9668	-14.2342	496.562	894.692	1400.53
96	4.77208	-7.11917	1608.04	160.699	1899.52
97	-13.6531	14.5984	113.109	550.189	206.431
98	-3.48404	6.97171	171.892	1116.63	1205.67
99	20.124	-16.9055	852.713	535.231	1614.12
100	-6.85018	-3.01656	1374.85	199.67	2056.94
101	-12.4853	16.2826	97.4552	740.714	214.243
102	0.65892	1.59623	224.503	1106.25	1232.35
103	20.5977	-15.233	1132.43	126.41	262.49
104	-12.9509	4.02077	946.936	280.838	2312.89
105	-10.6474	13.7131	98.2682	1111.99	1176.71
106	9.59349	-9.14368	376.796	1023.93	1310.47
107	10.4386	-11.1107	1652.48	133.037	1858.3
108	-13.8406	8.87632	132.765	377.091	223.7
109	-6.68744	11.6671	135.55	1115.56	1185.83
110	14.779	-13.0361	517.66	939.841	1369.32
111	4.35231	-8.38578	1604.37	152.096	1901.69
112	-13.7233	16.0554	104.221	596.434	192.122
113	-2.73721	3.82547	180.671	1112.06	1220.12
114	19.8462	-16.1741	807.518	235.343	1779.93
115	-6.00882	-1.51205	1408.66	212.637	2034.8
116	-12.5443	16.2872	84.3698	848.999	274.002
117	3.34611	-2.78087	263.486	1087.71	1256.96
118	17.3862	-13.5851	1688.13	118.172	1815.67
119	-13.7783	6.01678	411.803	322.435	2617.49
120	-9.57434	13.5296	107.58	1111.18	1175.76
