Time [h]	Room.WindowSolarRadiationFluxSum [W]	Room.WindowSolarRadiationLoad [W]	Window with constant shading.FluxShortWaveRadiationB [W]	Simple window, no frame and divider.FluxShortWaveRadiationB [W]	Simple window, no frame and divider.FluxShortWaveRadiationB [W]	Simple window, no frame and divider.FluxShortWaveRadiationB [W]	Model(id=2000).SolarIntensityOnShadingSensor [W/m2]	Model(id=2001).SolarIntensityOnShadingSensor [W/m2]
4344	0	0	0	0	0	0	0	0
4344.166667	0	0	0	0	0	0	0	0
4344.333333	0	0	0	0	0	0	0	0
4344.5	0	0	0	0	0	0	0	0
4344.666667	0	0	0	0	0	0	0	0
4344.833333	0	0	0	0	0	0	0	0
4345	0	0	0	0	0	0	0	0
4345.166667	0	0	0	0	0	0	0	0
4345.333333	0	0	0	0	0	0	0	0
4345.5	0	0	0	0	0	0	0	0
4345.666667	0	0	0	0	0	0	0	0
4345.833333	0	0	0	0	0	0	0	0
4346	0	0	0	0	0	0	0	0
4346.166667	0	0	0	0	0	0	0	0
4346.333333	0	0	0	0	0	0	0	0
4346.5	0	0	0	0	0	0	0	0
4346.666667	6.48	3.24	1.08	1.8	1.8	1.8	1	0.6
4346.833333	12.96	6.48	2.16	3.6	3.6	3.6	2	1.2
4347	19.44	9.72	3.24	5.4	5.4	5.4	3	1.8
4347.166667	25.92	12.96	4.32	7.2	7.2	7.2	4	2.4
4347.333333	32.4	16.2	5.4	9	9	9	5	3
4347.5	38.88	19.44	6.48	10.8	10.8	10.8	6	3.6
4347.666667	50.76	25.38	8.46	14.1	14.1	14.1	7.83333	4.7
4347.833333	62.64	31.32	10.44	17.4	17.4	17.4	9.66667	5.8
4348	74.52	37.26	12.42	20.7	20.7	20.7	11.5	6.9
4348.166667	86.4	43.2	14.4	24	24	24	13.3333	8
4348.333333	98.28	49.14	16.38	27.3	27.3	27.3	15.1667	9.1
4348.5	110.16	55.08	18.36	30.6	30.6	30.6	17	10.2
4348.666667	154.44	77.22	25.74	42.9	42.9	42.9	23.8333	14.3
4348.833333	198.72	99.36	33.12	55.2	55.2	55.2	30.6667	18.4
4349	243	121.5	40.5	67.5	67.5	67.5	37.5	22.5
4349.166667	287.28	143.64	47.88	79.8	79.8	79.8	44.3333	26.6
4349.333333	331.56	165.78	55.26	92.1	92.1	92.1	51.1667	30.7
4349.5	375.84	187.92	62.64	104.4	104.4	104.4	58	34.8
4349.666667	569.315	284.657	93.7104	178.271	148.667	148.667	84.7218	49.5555
4349.833333	762.081	381.041	123.302	252.596	193.091	193.091	111.97	64.3637
4350	954.201	477.1	151.645	327.207	237.675	237.675	139.749	79.2249
4350.166667	1145.74	572.868	178.968	401.932	282.418	282.418	168.059	94.1393
4350.333333	1336.74	668.371	205.501	476.601	327.32	327.32	196.899	109.107
4350.5	1527.28	763.638	231.473	551.043	372.38	372.38	226.267	124.127
4350.666667	1572.63	786.315	239.285	552.373	390.486	390.486	235.786	130.162
4350.833333	1618.39	809.194	247.896	553.484	408.504	408.504	245.013	136.168
4351	1664.54	832.269	257.198	554.47	426.435	426.435	253.95	142.145
4351.166667	1711.03	855.514	267.048	555.422	444.279	444.279	262.597	148.093
4351.333333	1757.81	878.905	277.304	556.433	462.037	462.037	270.957	154.012
4351.5	1804.84	902.418	287.826	557.583	479.716	479.71	279.032	159.903
4351.666667	1812.11	906.057	290.249	554.147	483.969	483.749	280.828	161.25
4351.833333	1819.62	909.808	292.652	550.788	488.425	487.753	282.508	162.584
4352	1827.29	913.647	295.033	547.546	492.992	491.722	284.073	163.907
4352.166667	1835.1	917.55	297.394	544.46	497.588	495.657	285.524	165.219
4352.333333	1843	921.499	299.736	541.569	502.134	499.56	286.866	166.52
4352.5	1850.88	925.441	302.058	538.84	506.553	503.43	288.101	167.81
4352.666667	1525.47	762.735	319.893	239.629	432.792	533.155	313.017	177.718
4352.833333	1625.62	812.812	337.83	262.689	462.056	563.05	338.498	187.683
4353	1726.81	863.405	355.862	284.664	493.18	593.104	364.512	197.701
4353.166667	1829.07	914.535	373.985	305.506	526.271	623.308	391.026	207.769
4353.333333	1932.04	966.021	392.191	324.804	561.395	653.652	418.005	217.884
4353.5	2035.75	1017.87	410.474	342.573	598.577	684.123	445.41	228.041
4353.666667	2127.73	1063.86	428.794	352.436	631.841	714.657	466.357	238.219
4353.833333	2218.8	1109.4	447.12	361.932	664.546	745.201	487.335	248.4
4354	2309.18	1154.59	465.45	370.98	697.001	775.75	508.332	258.583
4354.166667	2398.17	1199.08	483.78	378.428	729.662	806.3	529.332	268.767
4354.333333	2487.09	1243.55	502.108	385.683	762.457	836.847	550.322	278.949
4354.5	2575.93	1287.96	520.432	392.799	795.31	867.386	571.287	289.129
4354.666667	2629.72	1314.86	522.359	400.139	836.619	870.598	602.827	290.199
4354.833333	2681.35	1340.67	524.397	402.331	880.626	873.995	634.983	291.332
4355	2731.12	1365.56	526.523	400.21	926.851	877.539	667.629	292.513
4355.166667	2780.19	1390.1	528.714	395.521	974.768	881.191	700.634	293.73
4355.333333	2828.77	1414.38	530.947	389.098	1023.81	884.911	733.869	294.97
4355.5	2876.83	1438.41	533.196	381.589	1073.38	888.66	767.2	296.22
4355.666667	2768.03	1384.02	515.547	357.857	1035.38	859.245	736.651	286.415
4355.833333	2660.56	1330.28	497.805	338.013	995.068	829.674	705.581	276.558
4356	2554.23	1277.12	479.98	321.583	952.703	799.967	674.057	266.656
4356.166667	2448.87	1224.44	462.086	308.072	908.571	770.144	642.145	256.715
4356.333333	2345.63	1172.82	444.135	296.09	862.976	742.434	609.913	256.487
4356.5	2245.88	1122.94	426.138	284.092	816.235	719.42	577.431	255.817
4356.666667	2272.74	1136.37	428.757	285.838	821.677	736.466	582.818	267.884
4356.833333	2303.8	1151.9	431.323	287.548	825.777	759.148	587.903	280.249
4357	2338.28	1169.14	433.831	289.221	828.508	786.72	592.672	292.888
4357.166667	2375.86	1187.93	436.281	290.854	829.854	818.875	597.113	305.774
4357.333333	2417.31	1208.66	438.669	292.446	829.814	856.385	601.214	318.88
4357.5	2462.73	1231.36	440.993	293.996	828.4	899.34	604.963	332.178
4357.666667	2530.11	1265.05	456.705	304.47	820.591	948.341	601.416	343.376
4357.833333	2587.35	1293.67	472.448	314.965	813.718	986.214	598.043	352.701
4358	2641.75	1320.88	488.235	325.49	808.08	1019.95	594.916	360.192
4358.166667	2693.09	1346.54	504.08	336.053	803.949	1049	592.108	365.892
4358.333333	2741.12	1370.56	519.994	346.663	801.565	1072.9	589.688	369.855
4358.5	2782.45	1391.22	535.99	357.327	801.136	1088	587.723	372.136
4358.666667	2652.86	1326.43	508.054	338.703	754.604	1051.5	557.521	358.909
4358.833333	2521.03	1260.52	480.119	320.079	706.729	1014.1	527.325	345.27
4359	2388.87	1194.44	452.187	301.458	659.481	975.745	497.149	331.227
4359.166667	2256.11	1128.06	424.262	282.841	612.938	936.073	467.008	316.788
4359.333333	2121.31	1060.65	396.345	264.23	567.168	893.562	436.916	301.961
4359.5	1986.27	993.135	368.439	245.626	522.226	849.978	406.885	286.759
4359.666667	1902.16	951.081	351.086	234.057	492.381	824.639	387.142	277.651
4359.833333	1817.95	908.975	333.742	222.495	463.346	798.367	367.454	268.228
4360	1733.13	866.563	316.41	210.94	434.927	770.849	347.83	258.5
4360.166667	1647.62	823.809	299.091	199.394	407.376	741.758	328.282	248.477
4360.333333	1562.23	781.115	281.788	187.858	380.795	711.789	308.82	238.171
4360.5	1476.98	738.488	264.501	176.334	355.175	680.966	289.451	227.594
4360.666667	1507.74	753.868	254.45	169.634	340.41	743.242	291.113	248.181
4360.833333	1540.26	770.128	244.155	162.77	325.666	807.666	291.414	269.329
4361	1573.71	786.855	233.82	155.739	311.478	872.673	290.325	290.891
4361.166667	1608.43	804.216	224.668	148.539	297.078	938.147	287.824	312.716
4361.333333	1644.92	822.462	217.468	141.167	282.334	1003.95	283.893	334.651
4361.5	1683.42	841.71	212.919	133.622	267.245	1069.63	278.52	356.545
4361.666667	1500.31	750.156	200.045	121.617	243.233	935.417	243.472	311.806
4361.833333	1315.39	657.697	186.609	109.84	219.68	799.265	210.332	266.422
4362	1127.88	563.939	171.188	98.2948	196.59	661.806	179.123	220.602
4362.166667	1112.05	556.024	153.46	217.459	217.459	523.671	149.863	174.557
4362.333333	897.629	448.815	132.602	189.768	189.768	385.491	122.561	128.497
4362.5	680.994	340.497	107.765	162.666	162.666	247.897	97.2195	82.6325
4362.666667	634.529	317.265	101.444	145.916	145.916	241.252	88.0541	80.4174
4362.833333	587.906	293.953	95.4265	129.112	129.112	234.255	78.707	78.0851
4363	541.138	270.569	89.7791	112.255	112.255	226.849	69.1819	75.6165
4363.166667	494.411	247.205	84.7428	95.3449	95.3449	218.978	59.4829	72.9928
4363.333333	447.707	223.854	80.3513	78.3845	78.3845	210.587	49.6149	70.1957
4363.5	400.998	200.499	76.6356	61.375	61.375	201.613	39.5833	67.2075
4363.666667	333.791	166.896	66.7208	50.8371	50.8371	165.397	31.9568	55.2577
4363.833333	266.329	133.164	55.4261	40.427	40.427	130.049	24.7566	43.5505
4364	199.121	99.5607	43.1291	30.1419	30.1419	95.7086	17.9728	32.1294
4364.166667	132.269	66.1345	29.805	19.9783	19.9783	62.5074	11.5943	21.0368
4364.333333	65.8654	32.9327	15.4336	9.93243	9.93243	30.5669	5.60808	10.3138
4364.5	0	0	0	0	0	0	0	0
4364.666667	0	0	0	0	0	0	0	0
4364.833333	0	0	0	0	0	0	0	0
4365	0	0	0	0	0	0	0	0
4365.166667	0	0	0	0	0	0	0	0
4365.333333	0	0	0	0	0	0	0	0
4365.5	0	0	0	0	0	0	0	0
4365.666667	0	0	0	0	0	0	0	0
4365.833333	0	0	0	0	0	0	0	0
4366	0	0	0	0	0	0	0	0
4366.166667	0	0	0	0	0	0	0	0
4366.333333	0	0	0	0	0	0	0	0
4366.5	0	0	0	0	0	0	0	0
4366.666667	0	0	0	0	0	0	0	0
4366.833333	0	0	0	0	0	0	0	0
4367	0	0	0	0	0	0	0	0
4367.166667	0	0	0	0	0	0	0	0
4367.333333	0	0	0	0	0	0	0	0
4367.5	0	0	0	0	0	0	0	0
4367.666667	0	0	0	0	0	0	0	0
4367.833333	0	0	0	0	0	0	0	0
4368	0	0	0	0	0	0	0	0
4368.166667	0	0	0	0	0	0	0	0
4368.333333	0	0	0	0	0	0	0	0
4368.5	0	0	0	0	0	0	0	0
4368.666667	0	0	0	0	0	0	0	0
4368.833333	0	0	0	0	0	0	0	0
4369	0	0	0	0	0	0	0	0
4369.166667	0	0	0	0	0	0	0	0
4369.333333	0	0	0	0	0	0	0	0
4369.5	0	0	0	0	0	0	0	0
4369.666667	0	0	0	0	0	0	0	0
4369.833333	0	0	0	0	0	0	0	0
4370	0	0	0	0	0	0	0	0
4370.166667	0	0	0	0	0	0	0	0
4370.333333	0	0	0	0	0	0	0	0
4370.5	0	0	0	0	0	0	0	0
4370.666667	0	0	0	0	0	0	0	0
4370.833333	0	0	0	0	0	0	0	0
4371	0	0	0	0	0	0	0	0
4371.166667	0	0	0	0	0	0	0	0
4371.333333	0	0	0	0	0	0	0	0
4371.5	0	0	0	0	0	0	0	0
4371.666667	42.12	21.06	7.02	11.7	11.7	11.7	6.5	3.9
4371.833333	84.24	42.12	14.04	23.4	23.4	23.4	13	7.8
4372	223.522	111.761	52.053	101.152	35.1584	35.1584	19.6946	11.7195
4372.166667	299.216	149.608	67.1173	137.859	47.1198	47.1198	27.0661	15.7066
4372.333333	375.345	187.673	81.0633	175.861	59.2101	59.2101	34.867	19.7367
4372.5	451.806	225.903	93.9144	215.025	71.4332	71.4332	43.1106	23.8111
4372.666667	630.142	315.071	130.061	329.102	85.4897	85.4897	54.9654	28.4966
4372.833333	809.008	404.504	161.434	447.425	100.075	100.075	68.5825	33.3583
4373	985.363	492.682	186.591	568.372	115.201	115.201	84.0017	38.4002
4373.166667	1160.4	580.199	207.1	691.545	130.877	130.877	101.256	43.6256
4373.333333	1334.22	667.109	223.358	816.636	147.112	147.112	120.372	49.0373
4373.5	1506.65	753.327	235.776	943.055	163.911	163.911	141.37	54.637
4373.666667	1618.54	809.272	236.254	1022.7	179.794	179.794	160.146	59.9313
4373.833333	1724.68	862.34	230.913	1101.77	196	196	180.001	65.3335
4374	1830.1	915.048	225.132	1179.91	212.529	212.529	200.93	70.843
4374.166667	1934.9	967.451	219.375	1256.77	229.376	229.376	222.92	76.4586
4374.333333	2039.2	1019.6	214.095	1332.03	246.537	246.537	245.956	82.179
4374.5	2143.08	1071.54	209.73	1405.33	264.006	264.006	270.02	88.0021
4374.666667	2192.46	1096.23	207.066	1410.42	287.486	287.486	289.953	95.8286
4374.833333	1332.67	666.334	207.715	565.37	248.703	310.879	309.595	103.626
4375	1379.04	689.522	211.745	565.775	267.344	334.18	328.932	111.393
4375.166667	1427.67	713.836	218.963	565.417	285.907	357.384	347.947	119.128
4375.333333	1478.38	739.189	229.167	564.332	304.39	380.488	366.626	126.829
4375.5	1531	765.498	242.092	562.559	322.859	403.487	384.956	134.496
4375.666667	1594.37	797.185	261.239	547.046	350.685	435.399	401.329	145.133
4375.833333	1659.71	829.854	280.197	531.522	380.996	466.994	416.647	155.665
4376	1726.5	863.25	298.966	516.145	413.113	498.277	430.921	166.092
4376.166667	1794.25	897.124	317.55	501.061	446.387	529.25	444.166	176.417
4376.333333	1862.48	931.24	335.952	486.409	480.2	559.919	456.397	186.64
4376.5	1930.3	965.149	354.175	471.909	513.923	590.291	467.637	196.764
4376.666667	1787.48	893.739	332.633	411.692	488.765	554.388	428.793	184.796
4376.833333	1642.68	821.339	310.763	354.01	459.967	517.938	388.127	172.646
4377	1495.51	747.754	288.579	299.055	426.909	480.966	345.718	160.322
4377.166667	1345.67	672.835	266.097	246.998	389.08	443.495	301.651	147.832
4377.333333	1192.76	596.379	243.333	197.791	346.079	405.555	256.016	135.185
4377.5	1037.18	518.59	220.304	152.082	297.622	367.173	208.91	122.391
4377.666667	1000.94	500.471	212.676	146.225	287.583	354.459	201.531	118.153
4377.833333	964.595	482.297	205.043	140.426	277.388	341.738	194.125	113.913
4378	928.184	464.092	197.405	134.685	267.086	329.009	186.695	109.67
4378.166667	891.691	445.845	189.764	128.947	256.707	316.273	179.242	105.424
4378.333333	855.196	427.598	182.118	123.293	246.255	303.53	171.767	101.177
4378.5	818.699	409.349	174.469	117.718	235.73	290.782	164.273	96.9273
4378.666667	897.48	448.74	191.161	128.9	258.818	318.601	180.336	106.2
4378.833333	976.207	488.104	207.854	139.973	281.957	346.423	196.411	115.474
4379	1054.89	527.445	224.549	150.958	305.135	374.248	212.494	124.749
4379.166667	1133.56	566.781	241.245	161.9	328.342	402.075	228.583	134.025
4379.333333	1212.23	606.113	257.942	172.815	351.566	429.903	244.675	143.301
4379.5	1290.88	645.441	274.638	183.717	374.796	457.73	260.767	152.577
4379.666667	1339.03	669.513	284.726	190.224	389.531	474.544	270.98	158.181
4379.833333	1387.18	693.589	294.814	196.753	404.254	491.357	281.19	163.786
4380	1435.35	717.674	304.901	203.333	418.947	508.168	291.393	169.389
4380.166667	1483.54	741.772	314.985	209.991	433.591	524.976	301.585	174.992
4380.333333	1531.84	765.922	325.068	216.712	448.171	541.894	311.763	181.111
4380.5	1580.4	790.198	335.146	223.431	462.668	559.15	321.923	187.392
4380.666667	1678.36	839.182	353.775	235.85	496.94	591.798	346.249	199.51
4380.833333	1777.55	888.776	372.388	248.258	530.818	626.089	370.486	212.396
4381	1878.24	939.118	390.979	260.653	564.169	662.434	394.605	226.037
4381.166667	1980.63	990.315	409.544	273.029	596.87	701.188	418.574	240.419
4381.333333	2085.16	1042.58	428.076	285.384	628.806	742.897	442.365	255.521
4381.5	2192.16	1096.08	446.571	297.714	659.874	787.997	465.946	271.322
4381.666667	2191.61	1095.81	443.19	295.46	656.614	796.349	465.499	273.876
4381.833333	2189.97	1094.98	439.78	293.187	652.733	804.269	464.887	276.707
4382	2189.3	1094.65	436.338	290.892	648.215	813.858	464.097	279.799
4382.166667	2189.65	1094.83	432.861	288.574	643.054	825.16	463.118	283.135
4382.333333	2191.04	1095.52	429.349	286.233	637.251	838.207	461.939	286.694
4382.5	2191.23	1095.61	425.799	283.866	630.814	850.749	460.55	290.458
4382.666667	1914.41	957.207	372.184	248.123	545.159	748.949	399.356	254.941
4382.833333	1634.8	817.398	318.643	212.429	460.172	643.552	338.572	218.329
4383	1353.88	676.939	265.183	176.789	377.371	534.534	278.24	180.675
4383.166667	1071.58	535.791	211.813	141.208	296.753	421.807	218.404	142.035
4383.333333	787.739	393.869	158.538	105.692	218.27	305.239	159.101	102.47
4383.5	643.952	321.976	105.367	175.611	177.284	185.69	100.37	62.0436
4383.666667	746.056	373.028	119.655	199.425	202.623	224.354	117.249	75.0734
4383.833333	848.265	424.132	133.894	223.157	227.095	264.118	133.857	88.3959
4384	950.481	475.24	148.082	246.804	250.761	304.833	150.18	101.981
4384.166667	1052.6	526.302	162.217	270.362	273.783	346.241	166.207	115.795
4384.333333	1154.86	577.431	176.297	293.828	296.375	388.361	181.928	129.808
4384.5	1257.36	628.678	190.32	317.2	318.743	431.093	197.333	143.984
4384.666667	1215.58	607.789	182.373	303.955	304.531	424.719	189.851	141.736
4384.833333	1174.1	587.049	174.409	290.682	290.744	418.262	182.274	139.453
4385	1132.62	566.31	166.478	277.381	277.381	411.379	174.602	137.126
4385.166667	1091.21	545.603	158.865	264.051	264.051	404.239	166.836	134.746
4385.333333	1049.95	524.976	151.656	250.693	250.693	396.91	158.976	132.303
4385.5	1008.88	504.44	144.902	237.307	237.307	389.364	151.024	129.788
4385.666667	1242.89	621.444	152.014	235.871	235.871	619.132	176.236	206.377
4385.833333	1481.3	740.652	165.196	233.203	233.203	849.703	197.343	283.234
4386	1723.85	861.927	185.513	229.297	229.297	1079.75	214.322	359.916
4386.166667	1971.2	985.599	214.96	224.15	224.15	1307.94	227.165	435.979
4386.333333	2223.86	1111.93	255.379	217.765	217.765	1532.95	235.882	510.983
4386.5	2482.32	1241.16	308.561	210.149	210.149	1753.46	240.497	584.487
4386.666667	2107.33	1053.67	292.114	178.306	178.306	1458.61	192.685	486.202
4386.833333	1722.72	861.361	261.532	147.845	147.845	1165.5	149.482	388.5
4387	1331.7	665.851	218.576	118.759	118.759	875.609	110.862	291.87
4387.166667	937.725	468.862	165.273	91.0351	91.0351	590.381	76.7837	196.794
4387.333333	541.203	270.601	100.646	64.6565	64.6565	311.244	47.1883	103.748
4387.5	142.56	71.28	23.76	39.6	39.6	39.6	22	13.2
4387.666667	122.04	61.02	20.34	33.9	33.9	33.9	18.8333	11.3
4387.833333	101.52	50.76	16.92	28.2	28.2	28.2	15.6667	9.4
4388	81	40.5	13.5	22.5	22.5	22.5	12.5	7.5
4388.166667	60.48	30.24	10.08	16.8	16.8	16.8	9.33333	5.6
4388.333333	39.96	19.98	6.66	11.1	11.1	11.1	6.16667	3.7
4388.5	19.44	9.72	3.24	5.4	5.4	5.4	3	1.8
4388.666667	16.2	8.1	2.7	4.5	4.5	4.5	2.5	1.5
4388.833333	12.96	6.48	2.16	3.6	3.6	3.6	2	1.2
4389	9.72	4.86	1.62	2.7	2.7	2.7	1.5	0.9
4389.166667	6.48	3.24	1.08	1.8	1.8	1.8	1	0.6
4389.333333	3.24	1.62	0.54	0.9	0.9	0.9	0.5	0.3
4389.5	0	0	0	0	0	0	0	0
4389.666667	0	0	0	0	0	0	0	0
4389.833333	0	0	0	0	0	0	0	0
4390	0	0	0	0	0	0	0	0
4390.166667	0	0	0	0	0	0	0	0
4390.333333	0	0	0	0	0	0	0	0
4390.5	0	0	0	0	0	0	0	0
4390.666667	0	0	0	0	0	0	0	0
4390.833333	0	0	0	0	0	0	0	0
4391	0	0	0	0	0	0	0	0
4391.166667	0	0	0	0	0	0	0	0
4391.333333	0	0	0	0	0	0	0	0
4391.5	0	0	0	0	0	0	0	0
4391.666667	0	0	0	0	0	0	0	0
4391.833333	0	0	0	0	0	0	0	0
4392	0	0	0	0	0	0	0	0
4392.166667	0	0	0	0	0	0	0	0
4392.333333	0	0	0	0	0	0	0	0
4392.5	0	0	0	0	0	0	0	0
4392.666667	0	0	0	0	0	0	0	0
4392.833333	0	0	0	0	0	0	0	0
4393	0	0	0	0	0	0	0	0
4393.166667	0	0	0	0	0	0	0	0
4393.333333	0	0	0	0	0	0	0	0
4393.5	0	0	0	0	0	0	0	0
4393.666667	0	0	0	0	0	0	0	0
4393.833333	0	0	0	0	0	0	0	0
4394	0	0	0	0	0	0	0	0
4394.166667	0	0	0	0	0	0	0	0
4394.333333	0	0	0	0	0	0	0	0
4394.5	0	0	0	0	0	0	0	0
4394.666667	0	0	0	0	0	0	0	0
4394.833333	0	0	0	0	0	0	0	0
4395	0	0	0	0	0	0	0	0
4395.166667	0	0	0	0	0	0	0	0
4395.333333	0	0	0	0	0	0	0	0
4395.5	0	0	0	0	0	0	0	0
4395.666667	38.88	19.44	6.48	10.8	10.8	10.8	6	3.6
4395.833333	77.76	38.88	12.96	21.6	21.6	21.6	12	7.2
4396	1265.3	632.651	385.924	813.498	32.9402	32.9402	19.8005	10.9801
4396.166667	953.128	476.564	264.121	598.91	45.0487	45.0487	30.1622	15.0162
4396.333333	633.934	316.967	155.04	367.216	55.8388	55.8388	36.1292	18.6129
4396.5	308.77	154.385	58.5202	119.734	65.2582	65.2582	37.5271	21.7527
4396.666667	476.341	238.171	94.0503	222.589	79.851	79.851	48.6699	26.617
4396.833333	644.63	322.315	125.377	329.422	94.9158	94.9158	61.3858	31.6386
4397	811.26	405.63	151.394	438.939	110.464	110.464	75.712	36.8212
4397.166667	976.829	488.414	173.134	550.687	126.504	126.504	91.6798	42.168
4397.333333	1141.36	570.678	190.949	664.318	143.044	143.044	109.315	47.6815
4397.5	1304.69	652.345	205.206	779.304	160.091	160.091	128.635	53.3635
4397.666667	1480.43	740.215	217.273	913.946	174.606	174.606	149.518	58.2019
4397.833333	1649.96	824.981	221.26	1049.21	189.749	189.749	172.496	63.2496
4398	1817.42	908.71	221.969	1184.41	205.521	205.521	197.569	68.5069
4398.166667	1983.04	991.518	220.309	1318.89	221.92	221.92	224.732	73.9732
4398.333333	2147.03	1073.51	217.179	1451.97	238.941	238.941	253.971	79.6472
4398.5	2309.6	1154.8	213.464	1582.97	256.58	256.58	285.266	85.5266
4398.666667	1349.48	674.738	204.297	659.187	215.997	269.996	309.152	89.9986
4398.833333	1392.17	696.086	197.517	683.999	226.958	283.698	333.992	94.5659
4399	1437.13	718.566	193.819	707.496	238.141	297.676	359.753	99.2253
4399.166667	1484.59	742.294	193.578	729.555	249.535	311.919	386.397	103.973
4399.333333	1534.73	767.366	197.133	750.053	261.132	326.415	413.884	108.805
4399.5	1587.75	793.877	204.69	768.871	273.041	341.151	442.168	113.717
4399.666667	1628.53	814.265	218.685	749.894	295.478	364.474	459.914	121.491
4399.833333	1672.66	836.331	232.508	730.164	322.476	387.513	476.711	129.171
4400	1719.72	859.859	246.16	709.943	353.35	410.266	492.554	136.755
4400.166667	1769.17	884.583	259.639	689.372	387.423	432.732	507.439	144.244
4400.333333	1820.47	910.237	272.947	668.587	424.029	454.911	521.37	151.637
4400.5	1872.28	936.139	286.083	646.991	462.398	476.805	534.35	158.935
4400.666667	1905.95	952.976	294.657	624.914	495.286	491.094	544.481	163.698
4400.833333	1940.17	970.087	303.09	602.922	529.012	505.15	553.833	168.383
4401	1974.61	987.303	311.384	581.123	563.126	518.973	562.41	172.991
4401.166667	2008.92	1004.46	319.54	559.615	597.2	532.566	570.22	177.522
4401.333333	2041.11	1020.56	327.559	536.797	630.827	545.932	577.272	181.977
4401.5	2071.65	1035.82	335.444	513.506	663.623	559.074	583.579	186.358
4401.666667	2135.96	1067.98	341.846	511.609	712.763	569.743	609.976	189.914
4401.833333	2196.18	1098.09	348.303	507.632	759.738	580.506	636.685	193.502
4402	2254.38	1127.19	354.804	501.558	806.676	591.34	663.633	197.113
4402.166667	2306.23	1153.12	361.334	487.625	855.053	602.223	690.743	200.741
4402.333333	2357.82	1178.91	367.879	472.277	904.529	613.132	717.939	204.377
4402.5	2408.98	1204.49	374.426	455.785	954.732	624.043	745.142	208.014
4402.666667	2225.38	1112.69	358.303	388.568	881.34	597.171	672.238	199.057
4402.833333	2038.73	1019.36	341.78	328.14	799.175	569.634	597.112	189.878
4403	1852.72	926.359	324.905	277.296	709.008	541.509	520.028	180.503
4403.166667	1669.86	834.929	307.727	237.516	611.738	512.878	441.258	170.959
4403.333333	1489.64	744.819	290.294	207.146	508.375	483.823	361.077	161.274
4403.5	1311.56	655.778	272.658	184.438	400.03	454.43	279.767	151.477
4403.666667	1492.53	746.263	287.419	197.635	528.44	479.032	373.439	159.677
4403.833333	1672.04	836.022	302.285	206.425	659.525	503.809	467.695	167.936
4404	1850.99	925.497	317.193	213.462	791.684	528.654	562.181	176.218
4404.166667	2030.26	1015.13	332.078	221.429	923.289	553.463	656.543	184.488
4404.333333	2213.36	1106.68	346.876	231.251	1052.7	582.525	750.424	212.929
4404.5	2408.04	1204.02	361.525	241.017	1178.31	627.196	843.472	252.99
4404.666667	2431.92	1215.96	367.125	244.75	1152.02	668.031	827.917	281.095
4404.833333	2463.52	1231.76	372.626	248.417	1123.27	719.201	811.808	306.873
4405	2499.47	1249.74	378.042	252.028	1092.54	776.86	795.234	330.304
4405.166667	2537.59	1268.79	383.391	255.594	1060.3	838.299	778.285	351.376
4405.333333	2578.52	1289.26	388.689	259.126	1027.03	903.675	761.05	370.084
4405.5	2621.22	1310.61	393.952	262.634	993.201	971.437	743.619	386.434
4405.666667	2564.19	1282.1	380.875	253.916	928.084	1001.32	703.47	387.428
4405.833333	2488.66	1244.33	367.823	245.215	863.974	1011.65	663.461	385.511
4406	2409.25	1204.62	354.817	236.545	801.363	1016.52	623.705	380.732
4406.166667	2325.58	1162.79	341.876	227.917	740.706	1015.08	584.311	373.15
4406.333333	2237.3	1118.65	329.02	219.347	682.414	1006.52	545.387	362.836
4406.5	2136.83	1068.42	316.267	210.845	626.849	982.871	507.039	349.868
4406.666667	2054.09	1027.04	304.236	202.824	581.373	965.653	476.866	340.779
4406.833333	1964.57	982.284	292.285	194.856	534.223	943.203	447.136	329.882
4407	1872.98	936.488	280.425	186.95	490.191	915.409	417.915	317.243
4407.166667	1779.04	889.519	268.669	179.113	449.587	881.669	389.271	302.935
4407.333333	1680.18	840.092	257.028	171.352	412.47	839.333	361.267	287.036
4407.5	1580.16	790.082	245.513	163.676	378.827	792.147	333.963	269.631
4407.666667	1655.06	827.532	242.365	161.577	372.516	878.606	347.307	298.37
4407.833333	1731.71	865.855	238.945	159.296	363.246	970.224	359.136	328.387
4408	1808.85	904.423	235.241	156.827	351.087	1065.69	369.392	359.518
4408.166667	1885.46	942.731	231.244	154.163	337.007	1163.05	378.021	391.591
4408.333333	1963.83	981.917	226.946	151.297	322.219	1263.37	384.976	424.431
4408.5	2044.34	1022.17	222.339	148.226	307.676	1366.1	390.216	457.859
4408.666667	1780.76	890.379	198.116	132.077	267.626	1182.94	331.476	395.451
4408.833333	1515.24	757.621	174.4	116.267	232.863	991.714	275.555	330.737
4409	1245.9	622.951	151.374	100.805	201.61	792.112	222.542	264.037
4409.166667	973.78	486.89	129.638	85.7023	171.405	587.035	172.519	195.678
4409.333333	840.898	420.449	108.088	177.415	177.415	377.979	125.551	125.993
4409.5	534.274	267.137	85.2996	141.509	141.509	165.957	81.6961	55.3189
4409.666667	533.288	266.644	82.1701	134.871	134.871	181.376	80.4033	60.4585
4409.833333	532.726	266.363	79.6413	128.116	128.116	196.853	78.7195	65.6176
4410	532.557	266.279	77.809	121.243	121.243	212.263	76.6427	70.7542
4410.166667	532.844	266.422	76.8625	114.252	114.252	227.478	74.1724	75.826
4410.333333	533.64	266.82	76.9806	107.143	107.143	242.373	71.3096	80.7911
4410.5	534.991	267.496	78.334	99.9171	99.9171	256.823	68.0568	85.6077
4410.666667	604.8	302.4	90.2676	97.0623	97.0623	320.407	70.2074	106.802
4410.833333	675.223	337.611	105.035	93.8531	93.8531	382.482	71.1768	127.494
4411	745.642	372.821	122.382	90.2943	90.2943	442.672	70.9809	147.557
4411.166667	816.531	408.265	143.138	86.3919	86.3919	500.609	69.6397	166.87
4411.333333	887.776	443.888	167.536	82.1534	82.1534	555.933	67.178	185.311
4411.5	959.261	479.631	195.794	77.5874	77.5874	608.292	63.6247	202.764
4411.666667	801.521	400.76	174.681	64.3876	64.3876	498.065	49.6253	166.449
4411.833333	642.442	321.221	148.128	51.6717	51.6717	390.97	37.2388	131.048
4412	484.329	242.164	117.794	39.4285	39.4285	287.678	26.4284	96.7241
4412.166667	327.557	163.778	83.5816	27.6455	27.6455	188.684	17.1516	63.6388
4412.333333	172.481	86.2404	45.4161	16.308	16.308	94.4485	9.36009	31.9475
4412.5	19.44	9.72	3.24	5.4	5.4	5.4	3	1.8
4412.666667	16.2	8.1	2.7	4.5	4.5	4.5	2.5	1.5
4412.833333	12.96	6.48	2.16	3.6	3.6	3.6	2	1.2
4413	9.72	4.86	1.62	2.7	2.7	2.7	1.5	0.9
4413.166667	6.48	3.24	1.08	1.8	1.8	1.8	1	0.6
4413.333333	3.24	1.62	0.54	0.9	0.9	0.9	0.5	0.3
4413.5	0	0	0	0	0	0	0	0
4413.666667	0	0	0	0	0	0	0	0
4413.833333	0	0	0	0	0	0	0	0
4414	0	0	0	0	0	0	0	0
4414.166667	0	0	0	0	0	0	0	0
4414.333333	0	0	0	0	0	0	0	0
4414.5	0	0	0	0	0	0	0	0
4414.666667	0	0	0	0	0	0	0	0
4414.833333	0	0	0	0	0	0	0	0
4415	0	0	0	0	0	0	0	0
4415.166667	0	0	0	0	0	0	0	0
4415.333333	0	0	0	0	0	0	0	0
4415.5	0	0	0	0	0	0	0	0
4415.666667	0	0	0	0	0	0	0	0
4415.833333	0	0	0	0	0	0	0	0
4416	0	0	0	0	0	0	0	0
4416.166667	0	0	0	0	0	0	0	0
4416.333333	0	0	0	0	0	0	0	0
4416.5	0	0	0	0	0	0	0	0
4416.666667	0	0	0	0	0	0	0	0
4416.833333	0	0	0	0	0	0	0	0
4417	0	0	0	0	0	0	0	0
4417.166667	0	0	0	0	0	0	0	0
4417.333333	0	0	0	0	0	0	0	0
4417.5	0	0	0	0	0	0	0	0
4417.666667	0	0	0	0	0	0	0	0
4417.833333	0	0	0	0	0	0	0	0
4418	0	0	0	0	0	0	0	0
4418.166667	0	0	0	0	0	0	0	0
4418.333333	0	0	0	0	0	0	0	0
4418.5	0	0	0	0	0	0	0	0
4418.666667	3.24	1.62	0.54	0.9	0.9	0.9	0.5	0.3
4418.833333	6.48	3.24	1.08	1.8	1.8	1.8	1	0.6
4419	9.72	4.86	1.62	2.7	2.7	2.7	1.5	0.9
4419.166667	12.96	6.48	2.16	3.6	3.6	3.6	2	1.2
4419.333333	16.2	8.1	2.7	4.5	4.5	4.5	2.5	1.5
4419.5	19.44	9.72	3.24	5.4	5.4	5.4	3	1.8
4419.666667	58.32	29.16	9.72	16.2	16.2	16.2	9	5.4
4419.833333	97.2	48.6	16.2	27	27	27	15	9
4420	209.719	104.86	46.1772	87.8934	37.8244	37.8244	21.0813	12.6081
4420.166667	274.054	137.027	58.7548	117.667	48.8161	48.8161	27.7204	16.272
4420.333333	338.723	169.361	70.4837	148.428	59.9056	59.9056	34.6853	19.9685
4420.5	403.647	201.824	81.3816	180.074	71.0959	71.0959	41.9862	23.6986
4420.666667	573.954	286.977	115.548	282.065	88.1708	88.1708	54.736	29.3903
4420.833333	744.767	372.383	145.658	387.718	105.696	105.696	68.9849	35.2318
4421	913.525	456.763	170.528	495.637	123.68	123.68	84.7674	41.2268
4421.166667	1081.22	540.611	191.421	605.533	142.134	142.134	102.112	47.3779
4421.333333	1247.9	623.951	208.674	717.104	161.063	161.063	121.042	53.6875
4421.5	1413.43	706.714	222.638	829.846	180.472	180.472	141.573	60.1574
4421.666667	1486.24	743.118	222.811	835.832	213.797	213.797	162.655	71.2655
4421.833333	1556.2	778.099	222.188	840.088	246.961	246.961	183.203	82.3204
4422	1627.31	813.653	224.598	842.786	279.961	279.961	203.204	93.3205
4422.166667	1699.49	849.745	229.799	844.102	312.794	312.794	222.645	104.265
4422.333333	1772.67	886.336	237.545	844.216	345.455	345.455	241.516	115.152
4422.5	1846.78	923.388	247.581	843.31	377.943	377.943	259.808	125.981
4422.666667	1913.28	956.642	256.111	848.766	404.203	404.203	275.678	134.734
4422.833333	1980.46	990.229	266.268	853.473	430.358	430.358	291.194	143.453
4423	1442.51	721.253	277.959	343.017	365.124	456.406	306.351	152.135
4423.166667	1503.65	751.825	290.996	344.433	385.876	482.345	321.149	160.782
4423.333333	1565.59	782.795	305.191	345.684	406.54	508.175	335.583	169.392
4423.5	1628.2	814.098	320.338	346.814	427.146	533.897	349.656	177.966
4423.666667	1631.12	815.559	321.006	346.221	428.88	535.011	353.368	178.337
4423.833333	1634.84	817.418	321.678	345.256	431.773	536.129	357.097	178.71
4424	1639.37	819.683	322.35	343.969	435.797	537.251	360.835	179.084
4424.166667	1644.67	822.335	323.023	342.362	440.913	538.372	364.573	179.457
4424.333333	1650.7	825.352	323.695	340.44	447.077	539.491	368.304	179.83
4424.5	1657.19	828.596	324.364	338.031	454.191	540.606	372.021	180.202
4424.666667	1587.68	793.842	313.926	308.234	442.313	523.21	353.199	174.403
4424.833333	1517.2	758.601	303.326	279.677	428.656	505.543	333.475	168.514
4425	1445.55	722.775	292.57	252.455	412.908	487.616	312.887	162.539
4425.166667	1372.57	686.287	281.666	226.654	394.812	469.443	291.476	156.481
4425.333333	1298.06	649.031	270.622	202.238	374.166	451.036	269.287	150.345
4425.5	1222.19	611.093	259.446	179.507	350.824	432.41	246.367	144.137
4425.666667	1419.04	709.52	282.365	241.358	424.709	470.608	316.193	156.869
4425.833333	1618.52	809.261	305.69	296.373	506.977	509.483	388.275	169.828
4426	1819.58	909.79	329.384	344.586	596.638	548.973	462.409	182.991
4426.166667	2018.49	1009.24	353.409	382.52	693.545	589.016	538.385	196.339
4426.333333	2217.15	1108.58	377.727	412.731	797.146	629.546	615.985	209.849
4426.5	2415.4	1207.7	402.297	435.836	906.772	670.496	694.985	223.499
4426.666667	2213.67	1106.83	376.608	374.508	834.874	627.68	628.099	209.227
4426.833333	2009.43	1004.71	350.612	318.204	756.261	584.353	559.51	194.784
4427	1805.37	902.686	324.345	268.951	671.502	540.575	489.415	180.192
4427.166667	1603.74	801.871	297.843	228.234	581.26	496.405	418.015	165.468
4427.333333	1404.15	702.077	271.144	194.82	486.283	451.906	345.52	150.635
4427.5	1206.21	603.107	244.285	167.39	387.397	407.141	272.138	135.714
4427.666667	1405.56	702.78	284.335	192.715	454.618	473.891	318.804	157.964
4427.833333	1604.9	802.448	324.386	217.989	521.877	540.643	365.477	180.214
4428	1804.32	902.161	364.431	243.529	588.978	607.385	412.114	202.462
4428.166667	2003.94	1001.97	404.461	269.654	655.725	674.102	458.674	224.701
4428.333333	2204.41	1102.21	444.471	296.314	721.923	741.705	505.113	251.248
4428.5	2407.11	1203.56	484.451	322.967	787.383	812.314	551.392	279.59
4428.666667	2271.05	1135.52	453.407	302.271	747.747	767.625	524.759	268.398
4428.833333	2137.42	1068.71	422.331	281.554	707.33	726.2	497.951	257.423
4429	2005.85	1002.92	391.223	260.815	666.107	687.703	470.959	246.65
4429.166667	1876.09	938.046	360.08	240.053	624.062	651.898	443.775	236.063
4429.333333	1748.64	874.319	328.9	219.267	581.185	619.287	416.388	225.647
4429.5	1623.56	811.782	297.682	198.455	537.478	589.95	388.79	215.385
4429.666667	1702.15	851.077	312.627	208.418	547.191	633.918	397.648	227.867
4429.833333	1775.89	887.946	327.561	218.374	556.81	673.147	406.451	239.831
4430	1849.26	924.629	342.49	228.327	566.437	712.004	415.221	251.279
4430.166667	1922.18	961.091	357.415	238.277	576.173	750.317	423.974	262.217
4430.333333	1994.6	997.299	372.342	248.228	586.112	787.917	432.73	272.649
4430.5	2063.68	1031.84	387.272	258.181	596.341	821.884	441.508	282.584
4430.666667	1772.67	886.335	332.528	221.686	504.878	713.578	375.712	244.434
4430.833333	1478.14	739.068	277.883	185.255	414.466	600.532	310.461	204.848
4431	1181.72	590.858	223.346	148.897	326.759	482.713	245.811	163.893
4431.166667	883.514	441.757	168.927	112.618	241.94	360.029	181.817	121.647
4431.333333	737.995	368.997	114.635	191.059	199.928	232.372	118.53	78.1876
4431.5	362.88	181.44	60.48	100.8	100.8	100.8	56	33.6
4431.666667	693.424	346.712	88.4844	147.474	166.4	291.066	119.08	98.6862
4431.833333	1024.86	512.432	116.006	193.343	222.995	492.52	179.477	166.776
4432	1356.54	678.268	143.022	238.369	271.33	703.814	237.065	237.565
4432.166667	1687.33	843.663	169.511	282.518	312.719	922.579	291.727	310.738
4432.333333	1753.86	876.93	195.454	130.303	279.393	1148.71	343.357	385.97
4432.5	2055.61	1027.8	220.835	147.224	306.339	1381.21	391.862	462.926
4432.666667	1998.01	999.006	207.733	138.489	281.429	1370.36	369.904	458.137
4432.833333	1941.47	970.735	194.641	129.761	260.105	1356.96	348.004	452.544
4433	1883.44	941.72	181.821	121.042	242.084	1338.49	326.184	446.164
4433.166667	1825.38	912.688	171.324	112.336	224.672	1317.04	304.468	439.014
4433.333333	1767.87	883.933	163.594	103.645	207.291	1293.34	282.878	431.112
4433.5	1710.97	855.484	158.615	94.9722	189.944	1267.44	261.435	422.479
4433.666667	1703.49	851.743	161.68	89.4067	178.813	1273.59	247.556	424.529
4433.833333	1697.27	848.637	168.046	83.8073	167.615	1277.81	233.394	425.936
4434	1691.32	845.66	176.771	78.1758	156.352	1280.02	218.965	426.674
4434.166667	1686.17	843.085	188.473	72.5142	145.028	1280.15	204.285	426.718
4434.333333	1682.05	841.024	203.441	66.8248	133.65	1278.13	189.373	426.045
4434.5	1679	839.501	221.777	61.1098	122.22	1273.89	174.248	424.632
4434.666667	1624.94	812.468	237.794	56.5017	113.003	1217.64	156.68	405.879
4434.833333	1670.68	835.338	250.766	129.961	129.961	1159.99	139.87	386.663
4435	1599.34	799.672	260.355	118.898	118.898	1101.19	123.828	367.064
4435.166667	1527.08	763.54	269.453	108.069	108.069	1041.49	108.563	347.163
4435.333333	1453.94	726.971	277.871	97.4743	97.4743	981.122	94.0808	327.041
4435.5	1379.99	689.993	285.421	87.115	87.115	920.336	80.3834	306.779
4435.666667	1148.54	574.268	255.223	70.7611	70.7611	751.792	60.8702	251.229
4435.833333	914.65	457.325	216.307	55.1667	55.1667	588.009	43.8891	197.11
4436	682.279	341.139	171.462	40.3148	40.3148	430.187	29.3827	144.679
4436.166667	452.012	226.006	120.537	26.1853	26.1853	279.104	17.2843	94.1893
4436.333333	224.408	112.204	63.4134	12.7555	12.7555	135.484	7.5182	45.8844
4436.5	0	0	0	0	0	0	0	0
4436.666667	0	0	0	0	0	0	0	0
4436.833333	0	0	0	0	0	0	0	0
4437	0	0	0	0	0	0	0	0
4437.166667	0	0	0	0	0	0	0	0
4437.333333	0	0	0	0	0	0	0	0
4437.5	0	0	0	0	0	0	0	0
4437.666667	0	0	0	0	0	0	0	0
4437.833333	0	0	0	0	0	0	0	0
4438	0	0	0	0	0	0	0	0
4438.166667	0	0	0	0	0	0	0	0
4438.333333	0	0	0	0	0	0	0	0
4438.5	0	0	0	0	0	0	0	0
4438.666667	0	0	0	0	0	0	0	0
4438.833333	0	0	0	0	0	0	0	0
4439	0	0	0	0	0	0	0	0
4439.166667	0	0	0	0	0	0	0	0
4439.333333	0	0	0	0	0	0	0	0
4439.5	0	0	0	0	0	0	0	0
4439.666667	0	0	0	0	0	0	0	0
4439.833333	0	0	0	0	0	0	0	0
4440	0	0	0	0	0	0	0	0
4440.166667	0	0	0	0	0	0	0	0
4440.333333	0	0	0	0	0	0	0	0
4440.5	0	0	0	0	0	0	0	0
4440.666667	0	0	0	0	0	0	0	0
4440.833333	0	0	0	0	0	0	0	0
4441	0	0	0	0	0	0	0	0
4441.166667	0	0	0	0	0	0	0	0
4441.333333	0	0	0	0	0	0	0	0
4441.5	0	0	0	0	0	0	0	0
4441.666667	0	0	0	0	0	0	0	0
4441.833333	0	0	0	0	0	0	0	0
4442	0	0	0	0	0	0	0	0
4442.166667	0	0	0	0	0	0	0	0
4442.333333	0	0	0	0	0	0	0	0
4442.5	0	0	0	0	0	0	0	0
4442.666667	3.24	1.62	0.54	0.9	0.9	0.9	0.5	0.3
4442.833333	6.48	3.24	1.08	1.8	1.8	1.8	1	0.6
4443	9.72	4.86	1.62	2.7	2.7	2.7	1.5	0.9
4443.166667	12.96	6.48	2.16	3.6	3.6	3.6	2	1.2
4443.333333	16.2	8.1	2.7	4.5	4.5	4.5	2.5	1.5
4443.5	19.44	9.72	3.24	5.4	5.4	5.4	3	1.8
4443.666667	66.96	33.48	11.16	18.6	18.6	18.6	10.3333	6.2
4443.833333	114.48	57.24	19.08	31.8	31.8	31.8	17.6667	10.6
4444	374.441	187.221	94.7854	189.578	45.039	45.039	25.13	15.013
4444.166667	495.408	247.704	120.293	257.552	58.782	58.782	34.2733	19.594
4444.333333	617.345	308.673	143.351	328.38	72.8072	72.8072	44.3573	24.2691
4444.5	740.028	370.014	164.009	401.772	87.1234	87.1234	55.4114	29.0411
4444.666667	831.986	415.993	176.563	465.261	95.0808	95.0808	63.6024	31.6936
4444.833333	923.45	461.725	186.418	530.405	103.314	103.314	72.7124	34.4379
4445	1011.62	505.808	192.273	595.688	111.827	111.827	82.7571	37.2757
4445.166667	1098.86	549.429	196.124	661.485	120.625	120.625	93.749	40.2082
4445.333333	1185.36	592.68	198.181	727.76	129.709	129.709	105.697	43.2364
4445.5	1271.04	635.519	198.662	794.212	139.082	139.082	118.606	46.3606
4445.666667	1480.41	740.203	215.217	943.712	160.738	160.738	144.126	53.5793
4445.833333	1683.27	841.636	223.255	1093.89	183.062	183.062	171.875	61.0208
4446	1883.95	941.977	227.803	1244.04	206.056	206.056	201.853	68.6854
4446.166667	2082.7	1041.35	229.831	1393.44	229.717	229.717	234.057	76.5724
4446.333333	2279.75	1139.87	230.296	1541.37	254.041	254.041	268.471	84.6805
4446.5	1407.23	703.614	230.14	674.848	223.218	279.022	305.073	93.0073
4446.666667	1431.81	715.905	219.124	684.671	234.673	293.341	325.303	97.7804
4446.833333	1458.86	729.429	211.578	693.371	246.182	307.727	345.758	102.576
4447	1488.65	744.326	207.828	700.913	257.738	322.173	366.41	107.391
4447.166667	1521.18	760.59	207.909	707.265	269.336	336.669	387.231	112.223
4447.333333	1556.41	778.203	211.83	712.4	280.967	351.208	408.194	117.069
4447.5	1594.3	797.152	219.468	716.29	292.765	365.781	429.268	121.927
4447.666667	1676.89	838.444	240.183	712.414	323.984	400.306	456.019	133.435
4447.833333	1762.46	881.231	260.805	707.36	359.623	434.675	482.249	144.892
4448	1850.98	925.49	281.33	701.523	399.243	468.884	507.945	156.295
4448.166667	1942.07	971.036	301.757	694.989	442.399	502.928	533.093	167.643
4448.333333	2035.36	1017.68	322.083	687.841	488.636	536.805	557.682	178.935
4448.5	2129.7	1064.85	342.307	679.583	537.298	570.511	581.703	190.17
4448.666667	2159.82	1079.91	359.779	627.278	573.133	599.631	577.103	199.877
4448.833333	2187.82	1093.91	376.816	577.932	605.044	628.027	570.09	209.342
4449	2213.11	1106.55	393.437	531.81	632.135	655.728	560.758	218.576
4449.166667	2235.21	1117.6	409.657	489.148	653.64	682.762	549.205	227.587
4449.333333	2252.97	1126.48	425.498	449.373	668.935	709.163	535.542	236.388
4449.5	2266.79	1133.4	440.979	413.311	677.537	734.965	519.883	244.988
4449.666667	2289.24	1144.62	434.363	426.821	704.117	723.939	543.128	241.313
4449.833333	2310.89	1155.45	427.948	436.509	733.193	713.246	567.485	237.749
4450	2332.73	1166.37	421.711	442.421	765.752	702.851	592.837	234.284
4450.166667	2351.19	1175.6	415.631	440.774	802.07	692.718	619.06	230.906
4450.333333	2369.31	1184.66	409.685	435.048	841.77	682.809	646.029	227.603
4450.5	2387.1	1193.55	403.851	425.752	884.41	673.085	673.615	224.362
4450.666667	2263.41	1131.71	390.957	379.398	841.459	651.596	629.485	217.199
4450.833333	2137.24	1068.62	377.816	336.62	793.11	629.693	583.975	209.898
4451	2010.7	1005.35	364.452	299.054	739.769	607.42	537.233	202.473
4451.166667	1886.15	943.075	350.894	268.511	681.92	584.824	489.413	194.941
4451.333333	1763.3	881.651	337.171	244.065	620.115	561.951	440.671	187.317
4451.5	1641.82	820.91	323.31	224.695	554.964	538.851	391.168	179.617
4451.666667	1501.5	750.75	297.559	202.941	505.067	495.932	354.774	165.311
4451.833333	1361.78	680.891	271.765	182.978	454.095	452.942	318.141	150.981
4452	1222.52	611.258	245.939	164.385	402.293	409.898	281.326	136.633
4452.166667	1083.56	541.779	220.09	146.734	349.917	366.816	244.386	122.272
4452.333333	944.92	472.46	194.228	129.486	297.232	323.974	207.38	109.151
4452.5	806.399	403.199	168.366	112.244	244.502	281.287	170.365	94.9954
4452.666667	1035.79	517.893	203.933	135.955	349.628	346.271	245.462	122.162
4452.833333	1271.25	635.627	239.422	159.615	452.777	419.441	320.123	153.936
4453	1514.76	757.381	274.799	183.2	553.145	503.617	394.163	190.246
4453.166667	1767.68	883.842	310.032	206.688	649.97	600.995	467.399	231.003
4453.333333	2032.41	1016.21	345.087	230.058	742.544	714.722	539.651	276.103
4453.5	2310.89	1155.44	379.933	253.289	830.226	847.437	610.741	325.422
4453.666667	2249.37	1124.68	369.704	246.469	774.778	858.416	574.745	321.754
4453.833333	2173.32	1086.66	359.529	239.686	720.869	853.235	539.051	315.325
4454	2092.92	1046.46	349.428	232.952	668.936	841.606	503.766	306.193
4454.166667	2007.82	1003.91	339.419	226.28	619.373	822.75	468.996	294.429
4454.333333	1917.68	958.841	329.522	219.681	572.527	795.952	434.844	280.112
4454.5	1818.71	909.353	319.754	213.169	528.695	757.088	401.41	263.331
4454.666667	1793.61	896.805	311.142	207.428	510.498	764.541	392.735	265.006
4454.833333	1766.63	883.316	302.495	201.663	490.018	772.456	383.859	266.615
4455	1739.32	869.662	293.811	195.874	468.872	780.766	374.782	268.139
4455.166667	1711.86	855.932	285.091	190.061	447.674	789.04	365.504	269.564
4455.333333	1681.99	840.997	276.335	184.223	426.551	794.885	356.026	270.871
4455.5	1652.16	826.081	267.543	178.362	405.637	800.62	346.349	272.045
4455.666667	1533.13	766.564	253.321	168.881	371.675	739.252	316.506	250.09
4455.833333	1412.99	706.496	239.259	159.506	341.117	673.11	287.55	226.754
4456	1291.31	645.653	225.367	150.244	313.579	602.116	259.537	202.144
4456.166667	1168.18	584.09	211.653	141.102	288.921	526.505	232.515	176.372
4456.333333	1044.48	522.241	198.126	132.084	266.924	447.349	206.533	149.551
4456.5	920.062	460.031	184.794	123.196	247.089	364.983	181.632	121.802
4456.666667	886.596	443.298	177.337	118.225	236.722	354.312	174.371	118.18
4456.833333	853.21	426.605	169.877	113.251	226.543	343.539	167.093	114.525
4457	819.754	409.877	162.426	108.276	216.552	332.5	159.799	110.833
4457.166667	786.322	393.161	155.108	103.299	206.598	321.317	152.49	107.106
4457.333333	949.584	474.792	147.964	245.8	245.8	310.021	145.165	103.34
4457.5	906.306	453.153	141.003	233.348	233.348	298.607	137.827	99.5356
4457.666667	801.056	400.528	125.553	206.911	206.911	261.68	121.371	87.2268
4457.833333	695.671	347.835	110.033	180.532	180.532	224.573	105.107	74.8578
4458	590.089	295.045	94.3187	154.211	154.211	187.349	89.0364	62.4495
4458.166667	484.32	242.16	78.3535	127.948	127.948	150.069	73.1613	50.0231
4458.333333	378.35	189.175	62.0623	101.745	101.745	112.799	57.4824	37.5995
4458.5	272.16	136.08	45.36	75.6	75.6	75.6	42	25.2
4458.666667	250.56	125.28	41.76	69.6	69.6	69.6	38.6667	23.2
4458.833333	228.96	114.48	38.16	63.6	63.6	63.6	35.3333	21.2
4459	207.36	103.68	34.56	57.6	57.6	57.6	32	19.2
4459.166667	185.76	92.88	30.96	51.6	51.6	51.6	28.6667	17.2
4459.333333	164.16	82.08	27.36	45.6	45.6	45.6	25.3333	15.2
4459.5	142.56	71.28	23.76	39.6	39.6	39.6	22	13.2
4459.666667	118.8	59.4	19.8	33	33	33	18.3333	11
4459.833333	95.04	47.52	15.84	26.4	26.4	26.4	14.6667	8.8
4460	71.28	35.64	11.88	19.8	19.8	19.8	11	6.6
4460.166667	47.52	23.76	7.92	13.2	13.2	13.2	7.33333	4.4
4460.333333	23.76	11.88	3.96	6.6	6.6	6.6	3.66667	2.2
4460.5	0	0	0	0	0	0	0	0
4460.666667	0	0	0	0	0	0	0	0
4460.833333	0	0	0	0	0	0	0	0
4461	0	0	0	0	0	0	0	0
4461.166667	0	0	0	0	0	0	0	0
4461.333333	0	0	0	0	0	0	0	0
4461.5	0	0	0	0	0	0	0	0
4461.666667	0	0	0	0	0	0	0	0
4461.833333	0	0	0	0	0	0	0	0
4462	0	0	0	0	0	0	0	0
4462.166667	0	0	0	0	0	0	0	0
4462.333333	0	0	0	0	0	0	0	0
4462.5	0	0	0	0	0	0	0	0
4462.666667	0	0	0	0	0	0	0	0
4462.833333	0	0	0	0	0	0	0	0
4463	0	0	0	0	0	0	0	0
4463.166667	0	0	0	0	0	0	0	0
4463.333333	0	0	0	0	0	0	0	0
4463.5	0	0	0	0	0	0	0	0
4463.666667	0	0	0	0	0	0	0	0
4463.833333	0	0	0	0	0	0	0	0
4464	0	0	0	0	0	0	0	0
4464.166667	0	0	0	0	0	0	0	0
4464.333333	0	0	0	0	0	0	0	0
4464.5	0	0	0	0	0	0	0	0
4464.666667	0	0	0	0	0	0	0	0
4464.833333	0	0	0	0	0	0	0	0
4465	0	0	0	0	0	0	0	0
4465.166667	0	0	0	0	0	0	0	0
4465.333333	0	0	0	0	0	0	0	0
4465.5	0	0	0	0	0	0	0	0
4465.666667	0	0	0	0	0	0	0	0
4465.833333	0	0	0	0	0	0	0	0
4466	0	0	0	0	0	0	0	0
4466.166667	0	0	0	0	0	0	0	0
4466.333333	0	0	0	0	0	0	0	0
4466.5	0	0	0	0	0	0	0	0
4466.666667	0	0	0	0	0	0	0	0
4466.833333	0	0	0	0	0	0	0	0
4467	0	0	0	0	0	0	0	0
4467.166667	0	0	0	0	0	0	0	0
4467.333333	0	0	0	0	0	0	0	0
4467.5	0	0	0	0	0	0	0	0
4467.666667	35.64	17.82	5.94	9.9	9.9	9.9	5.5	3.3
4467.833333	71.28	35.64	11.88	19.8	19.8	19.8	11	6.6
4468	245.685	122.843	62.0903	124.187	29.7039	29.7039	16.5128	9.90129
4468.166667	329.309	164.655	79.5144	169.892	39.9516	39.9516	23.1719	13.3172
4468.333333	413.571	206.786	95.3372	217.466	50.3838	50.3838	30.4459	16.7946
4468.5	498.325	249.162	109.592	266.72	61.0063	61.0063	38.3541	20.3354
4468.666667	711.378	355.689	153.015	411.03	73.6667	73.6667	50.5556	24.5556
4468.833333	925.087	462.544	190.114	560.931	87.0214	87.0214	65.0713	29.0071
4469	1135.28	567.638	219.033	714.069	101.086	101.086	81.954	33.6954
4469.166667	1343.87	671.935	241.883	870.238	115.874	115.874	101.247	38.6248
4469.333333	1550.9	775.452	259.184	1028.93	131.396	131.396	122.986	43.7986
4469.5	1756.16	878.08	271.478	1189.37	147.659	147.659	147.196	49.2196
4469.666667	1831.32	915.659	262.867	1219.2	174.628	174.628	169.593	58.2094
4469.833333	1900.94	950.469	250.783	1246.98	201.59	201.59	191.966	67.1967
4470	1971.39	985.694	241.597	1272.71	228.539	228.539	214.297	76.1797
4470.166667	2042.65	1021.33	235.287	1296.43	255.47	255.47	236.567	85.1567
4470.333333	2114.7	1057.35	231.819	1318.13	282.378	282.378	258.759	94.1259
4470.5	2187.51	1093.75	231.145	1337.85	309.257	309.257	280.855	103.086
4470.666667	2203.05	1101.53	224.987	1329.26	324.401	324.401	294.671	108.134
4470.833333	1360.52	680.26	222.005	527.543	271.543	339.429	308.097	113.143
4471	1382.66	691.33	222.156	522.697	283.469	354.337	321.122	118.112
4471.166667	1406.84	703.421	225.209	517.218	295.296	369.12	333.732	123.04
4471.333333	1432.87	716.436	230.924	511.153	307.02	383.775	345.917	127.925
4471.5	1460.57	730.286	238.98	504.552	318.739	398.3	357.667	132.767
4471.666667	1541.29	770.645	260.535	496.892	349.638	434.225	377.417	144.742
4471.833333	1623.49	811.744	281.943	488.893	382.747	469.905	396.35	156.635
4472	1707	853.501	303.205	480.924	417.532	505.342	414.472	168.447
4472.166667	1791.44	895.719	324.323	473.102	453.476	540.538	431.792	180.179
4472.333333	1876.41	938.207	345.298	465.534	490.086	575.497	448.321	191.832
4472.5	1961.22	980.609	366.134	458.086	526.776	610.223	464.075	203.408
4472.666667	1907.44	953.719	361.888	417.21	525.194	603.146	445.488	201.049
4472.833333	1852.07	926.036	357.374	378.343	520.733	595.623	425.409	198.541
4473	1794.79	897.395	352.602	341.645	512.872	587.671	403.902	195.89
4473.166667	1735.33	867.666	347.586	307.258	501.178	579.31	381.032	193.103
4473.333333	1673.3	836.652	342.337	275.099	485.304	570.562	356.874	190.187
4473.5	1608.93	804.464	336.871	245.606	465	561.451	331.502	187.15
4473.666667	1653.75	826.876	347.152	249.049	478.964	578.587	339.458	192.862
4473.833333	1698.04	849.022	357.413	252.772	492.171	595.688	347.293	198.563
4474	1742.15	871.076	367.653	256.779	504.964	612.755	355.016	204.252
4474.166667	1785.94	892.968	377.874	260.867	517.404	629.79	362.633	209.93
4474.333333	1829.69	914.847	388.078	265.321	529.498	646.797	370.155	215.599
4474.5	1873.45	936.723	398.266	270.141	541.263	663.776	377.588	221.259
4474.666667	1791.1	895.55	380.649	257.752	518.284	634.416	361.385	211.472
4474.833333	1708.65	854.327	363.031	245.31	495.263	605.051	345.17	201.684
4475	1626.14	813.07	345.41	232.851	472.196	575.683	328.942	191.894
4475.166667	1543.65	771.824	327.786	220.472	449.079	546.31	312.7	182.103
4475.333333	1461.18	730.589	310.16	208.175	425.908	516.934	296.446	172.311
4475.5	1378.73	689.363	292.532	195.96	402.681	487.553	280.177	162.518
4475.666667	1358.95	679.474	288.478	192.837	396.838	480.796	275.986	160.265
4475.833333	1339.21	669.607	284.42	189.846	390.915	474.033	271.777	158.011
4476	1319.52	659.759	280.36	186.972	384.921	467.266	267.553	155.755
4476.166667	1299.86	649.928	276.297	184.2	378.865	460.495	263.315	153.498
4476.333333	1280.26	640.13	272.232	181.488	372.756	453.783	259.066	151.551
4476.5	1260.79	630.395	268.165	178.777	366.605	447.242	254.807	149.632
4476.666667	1171.4	585.699	249.132	166.088	340.302	415.876	236.564	139.324
4476.833333	1082.06	541.028	230.097	153.398	313.982	384.579	218.317	128.948
4477	992.709	496.355	211.063	140.708	287.659	353.28	200.07	118.503
4477.166667	903.312	451.656	192.028	128.019	261.345	321.92	181.824	107.991
4477.333333	813.853	406.927	172.995	115.33	235.052	290.476	163.582	97.4112
4477.5	930.466	465.233	153.963	256.604	260.991	258.908	145.347	86.7659
4477.666667	1135.8	567.899	183	305	327.466	320.331	184.168	109.036
4477.833333	1343.22	671.61	211.977	353.294	392.178	385.771	222.648	132.55
4478	1552.96	776.48	240.883	401.471	454.933	455.674	260.737	157.267
4478.166667	1765.13	882.567	269.71	449.516	515.568	530.339	298.386	183.137
4478.333333	1566.61	783.304	298.449	198.966	459.165	610.029	335.547	210.109
4478.5	1741.85	870.926	327.092	218.061	504	692.699	372.175	238.126
4478.666667	1857.16	928.578	331.918	221.279	529.325	774.634	401.49	267.366
4478.833333	1974.84	987.42	336.501	224.334	548.223	865.781	429.451	298.978
4479	2095.15	1047.57	340.822	227.215	561.043	966.066	455.957	332.81
4479.166667	2218.22	1109.11	344.865	229.91	568.674	1074.77	480.913	368.694
4479.333333	2339.74	1169.87	348.612	232.408	571.488	1187.24	504.232	406.46
4479.5	2463.03	1231.52	352.049	234.7	569.968	1306.32	525.829	445.927
4479.666667	2491.29	1245.65	329.056	219.371	532.334	1410.53	527.257	480.154
4479.833333	2522.08	1261.04	305.651	203.768	490.503	1522.16	526.396	516.171
4480	2553.38	1276.69	281.819	187.88	444.737	1638.94	523.162	553.73
4480.166667	2583.1	1291.55	257.546	171.698	396.037	1757.82	517.479	592.575
4480.333333	2615.47	1307.73	232.821	155.214	346.649	1880.78	509.28	632.444
4480.5	2651.07	1325.53	207.632	138.421	298.026	2006.99	498.508	673.07
4480.666667	2520.03	1260.01	196.516	131.011	269.939	1922.56	457.588	642.884
4480.833333	2389.16	1194.58	185.689	123.793	248.799	1830.88	418.274	610.543
4481	2254.42	1127.21	175.371	116.777	233.554	1728.72	380.641	576.239
4481.166667	2118.53	1059.26	168.107	109.971	219.942	1620.51	344.757	540.17
4481.333333	1981.84	990.919	164.075	103.382	206.765	1507.62	310.686	502.539
4481.5	1844.19	922.096	162.481	97.0177	194.035	1390.66	278.481	463.553
4481.666667	1680.06	840.029	159.356	89.0028	178.006	1253.69	244.19	417.898
4481.833333	1514.26	757.132	156.64	81.2478	162.496	1113.88	212.065	371.293
4482	1345.79	672.895	152.588	73.7566	147.513	971.933	182.139	323.978
4482.166667	1174.79	587.394	146.617	66.5324	133.065	828.573	154.437	276.191
4482.333333	1120.41	560.207	138.002	148.943	148.943	684.526	128.975	228.175
4482.5	930.746	465.373	125.772	132.229	132.229	540.515	105.764	180.172
4482.666667	806.472	403.236	117.361	116.786	116.786	455.538	89.288	151.846
4482.833333	680.027	340.013	105.602	101.709	101.709	371.006	74.0311	123.669
4483	551.562	275.781	90.2647	86.9961	86.9961	287.305	59.9869	95.7684
4483.166667	422.33	211.165	72.2229	72.6434	72.6434	204.82	47.1446	68.2733
4483.333333	292.438	146.219	51.2173	58.6467	58.6467	123.928	35.4889	41.3093
4483.5	162	81	27	45	45	45	25	15
4483.666667	135	67.5	22.5	37.5	37.5	37.5	20.8333	12.5
4483.833333	108	54	18	30	30	30	16.6667	10
4484	81	40.5	13.5	22.5	22.5	22.5	12.5	7.5
4484.166667	54	27	9	15	15	15	8.33333	5
4484.333333	27	13.5	4.5	7.5	7.5	7.5	4.16667	2.5
4484.5	0	0	0	0	0	0	0	0
4484.666667	0	0	0	0	0	0	0	0
4484.833333	0	0	0	0	0	0	0	0
4485	0	0	0	0	0	0	0	0
4485.166667	0	0	0	0	0	0	0	0
4485.333333	0	0	0	0	0	0	0	0
4485.5	0	0	0	0	0	0	0	0
4485.666667	0	0	0	0	0	0	0	0
4485.833333	0	0	0	0	0	0	0	0
4486	0	0	0	0	0	0	0	0
4486.166667	0	0	0	0	0	0	0	0
4486.333333	0	0	0	0	0	0	0	0
4486.5	0	0	0	0	0	0	0	0
4486.666667	0	0	0	0	0	0	0	0
4486.833333	0	0	0	0	0	0	0	0
4487	0	0	0	0	0	0	0	0
4487.166667	0	0	0	0	0	0	0	0
4487.333333	0	0	0	0	0	0	0	0
4487.5	0	0	0	0	0	0	0	0
4487.666667	0	0	0	0	0	0	0	0
4487.833333	0	0	0	0	0	0	0	0
4488	0	0	0	0	0	0	0	0
4488.166667	0	0	0	0	0	0	0	0
4488.333333	0	0	0	0	0	0	0	0
4488.5	0	0	0	0	0	0	0	0
4488.666667	0	0	0	0	0	0	0	0
4488.833333	0	0	0	0	0	0	0	0
4489	0	0	0	0	0	0	0	0
4489.166667	0	0	0	0	0	0	0	0
4489.333333	0	0	0	0	0	0	0	0
4489.5	0	0	0	0	0	0	0	0
4489.666667	0	0	0	0	0	0	0	0
4489.833333	0	0	0	0	0	0	0	0
4490	0	0	0	0	0	0	0	0
4490.166667	0	0	0	0	0	0	0	0
4490.333333	0	0	0	0	0	0	0	0
4490.5	0	0	0	0	0	0	0	0
4490.666667	0	0	0	0	0	0	0	0
4490.833333	0	0	0	0	0	0	0	0
4491	0	0	0	0	0	0	0	0
4491.166667	0	0	0	0	0	0	0	0
4491.333333	0	0	0	0	0	0	0	0
4491.5	0	0	0	0	0	0	0	0
4491.666667	35.64	17.82	5.94	9.9	9.9	9.9	5.5	3.3
4491.833333	71.28	35.64	11.88	19.8	19.8	19.8	11	6.6
4492	106.92	53.46	17.82	29.7	29.7	29.7	16.5	9.9
4492.166667	574.336	287.168	152.62	341.03	40.3432	40.3432	24.4774	13.4477
4492.333333	722.42	361.21	181.392	438.113	51.4571	51.4571	34.0238	17.1524
4492.5	871.651	435.825	206.537	539.091	63.0113	63.0113	45.0377	21.0038
4492.666667	903.472	451.736	197.081	540.002	83.1944	83.1944	58.9814	27.7315
4492.833333	933.429	466.715	188.416	538.538	103.238	103.238	72.4582	34.4125
4493	959.819	479.91	179.807	533.744	123.134	123.134	85.4465	41.0447
4493.166667	986.005	493.003	173.324	526.925	142.878	142.878	97.9262	47.626
4493.333333	1012.24	506.121	168.872	518.442	162.464	162.464	109.88	54.1546
4493.5	1038.59	519.293	166.347	508.464	181.887	181.887	121.291	60.6291
4493.666667	1263.14	631.568	189.203	705.471	184.231	184.231	138.27	61.4103
4493.833333	1481.46	740.731	201.36	904.888	187.607	187.607	158.69	62.5357
4494	1695.94	847.969	206.285	1105.61	192.02	192.02	182.566	64.0066
4494.166667	1906.96	953.479	205.483	1306.53	197.471	197.471	209.902	65.8236
4494.333333	2114.9	1057.45	200.449	1506.54	203.957	203.957	240.689	67.9855
4494.5	2320.12	1160.06	192.665	1704.52	211.47	211.47	274.901	70.4901
4494.666667	1292.79	646.394	181.242	706.291	180.113	225.141	299.637	75.0471
4494.833333	1332.64	666.322	172.825	729.479	191.262	239.078	325.259	79.6926
4495	1375.16	687.581	168.026	751.25	202.616	253.27	351.732	84.4232
4495.166667	1420.54	710.271	167.184	771.489	214.164	267.705	379.016	89.235
4495.333333	1468.95	734.474	170.599	790.08	225.897	282.371	407.07	94.1237
4495.5	1520.56	760.28	178.353	806.916	238.036	297.254	435.848	99.0848
4495.666667	1581.47	790.736	193.523	802.505	262.905	322.538	461.795	107.513
4495.833333	1645.89	822.943	208.632	796.152	293.38	347.721	487.402	115.907
4496	1714.12	857.061	223.676	788.562	329.09	372.793	512.645	124.264
4496.166667	1785.84	892.919	238.649	779.804	369.636	397.749	537.496	132.583
4496.333333	1860.67	930.335	253.548	769.945	414.597	422.58	561.933	140.86
4496.5	1937.29	968.646	268.368	758.504	463.142	447.279	585.931	149.093
4496.666667	1912.7	956.352	272.456	697.037	489.116	454.094	574.48	151.365
4496.833333	1886.66	943.329	276.133	637.953	512.351	460.222	560.739	153.407
4497	1858.53	929.263	279.411	581.514	531.916	465.685	544.783	155.228
4497.166667	1827.76	913.882	282.305	527.957	546.994	470.508	526.694	156.836
4497.333333	1792.75	896.375	284.832	476.309	556.89	474.719	506.564	158.24
4497.5	1753.46	876.729	287.008	427.071	561.032	478.347	484.49	159.449
4497.666667	1764.47	882.237	290.6	406.697	582.843	484.334	486.113	161.445
4497.833333	1770.04	885.02	294.084	387.221	598.594	490.14	487.134	163.38
4498	1774.41	887.204	297.463	368.693	612.482	495.771	487.57	165.257
4498.166667	1774.65	887.324	300.739	347.885	624.792	501.232	487.44	167.077
4498.333333	1774.37	887.186	303.917	328.471	635.455	506.529	486.763	168.843
4498.5	1773.91	886.955	307.001	310.822	644.419	511.668	485.561	170.556
4498.666667	1847.7	923.85	327.334	304.742	670.066	545.557	496.023	181.852
4498.833333	1919.57	959.785	347.563	299.199	693.537	579.271	505.904	193.09
4499	1990.31	995.153	367.694	294.886	714.901	612.824	515.246	204.275
4499.166667	2061.94	1030.97	387.737	293.722	734.257	646.228	524.093	215.409
4499.333333	2134.38	1067.19	407.698	295.461	751.727	679.497	532.49	226.499
4499.5	2207.47	1103.74	427.587	299.78	767.458	712.646	540.485	237.549
4499.666667	2134.45	1067.23	408.439	281.664	763.621	680.731	536.603	226.91
4499.833333	2061.72	1030.86	389.27	264.345	759.318	648.784	532.613	216.261
4500	1989.4	994.701	370.072	248.285	754.258	616.787	528.455	205.596
4500.166667	1917.65	958.824	350.833	233.942	748.152	584.721	524.07	194.907
4500.333333	1847.71	923.856	331.542	221.028	740.72	554.424	519.398	193.442
4500.5	1782.53	891.265	312.188	208.126	731.691	530.525	514.38	195.81
4500.666667	1857.14	928.572	312.176	208.118	787.048	549.803	555.979	214.86
4500.833333	1942.14	971.07	312.03	208.02	839.029	583.061	596.834	238.445
4501	2038.63	1019.31	311.717	207.811	886.863	632.237	636.761	266.472
4501.166667	2147.11	1073.55	311.204	207.469	929.833	698.599	675.578	298.831
4501.333333	2270.78	1135.39	310.459	206.973	967.29	786.062	713.107	335.397
4501.5	2411.55	1205.78	309.451	206.301	998.661	897.141	749.174	376.023
4501.666667	2397.99	1199	302.107	201.405	937.979	956.503	715.038	385.681
4501.833333	2362.4	1181.2	294.758	196.505	877.699	993.441	680.875	392.482
4502	2323.68	1161.84	287.423	191.615	818.348	1026.3	646.793	396.461
4502.166667	2281.46	1140.73	280.122	186.748	760.414	1054.18	612.898	397.665
4502.333333	2235.37	1117.69	272.873	181.915	704.349	1076.24	579.294	396.147
4502.5	2175.33	1087.66	265.695	177.13	650.56	1081.94	546.085	391.972
4502.666667	2185.37	1092.69	260.258	173.506	621.884	1129.72	536.713	405.365
4502.833333	2190.85	1095.42	254.738	169.826	588.264	1178.02	526.88	418.344
4503	2193.84	1096.92	249.137	166.091	551.972	1226.64	516.592	430.875
4503.166667	2196.13	1098.06	243.455	162.303	515.983	1274.39	505.862	442.926
4503.333333	2191.49	1095.75	237.696	158.464	480.639	1314.7	494.697	454.462
4503.5	2186.8	1093.4	231.86	154.573	446.281	1354.08	483.111	465.453
4503.666667	2266.97	1133.49	225.312	150.208	421.106	1470.35	490.901	502.769
4503.833333	2349.13	1174.57	218.427	145.618	393.536	1591.55	496.818	541.139
4504	2430.95	1215.47	211.195	140.797	363.736	1715.22	500.806	580.368
4504.166667	2510.11	1255.05	203.607	135.738	332.39	1838.37	502.816	620.252
4504.333333	2591.68	1295.84	195.655	130.437	301.885	1963.7	502.807	660.586
4504.5	2676.19	1338.1	187.333	124.889	273.447	2090.52	500.741	701.16
4504.666667	2554.33	1277.17	177.684	118.456	246.019	2012.17	460.468	672.861
4504.833333	2432.85	1216.42	168.318	112.212	225.965	1926.35	421.766	642.334
4505	2307.21	1153.6	159.403	106.166	212.331	1829.31	384.712	609.769
4505.166667	2180.72	1090.36	153.662	100.325	200.651	1726.08	349.377	575.359
4505.333333	2053.56	1026.78	151.542	94.699	189.398	1617.92	315.825	539.307
4505.5	1925.6	962.799	152.267	89.2935	178.587	1505.45	284.113	501.817
4505.666667	2041.47	1020.74	161.916	84.9153	169.831	1624.81	282.627	541.603
4505.833333	2161.21	1080.6	178.091	80.2697	160.539	1742.31	278.914	580.769
4506	2283.86	1141.93	200.548	75.3578	150.716	1857.24	272.982	619.079
4506.166667	2409.8	1204.9	230.349	70.1815	140.363	1968.9	264.846	656.301
4506.333333	2539.76	1269.88	268.921	64.7439	129.488	2076.6	254.532	692.201
4506.5	2674.02	1337.01	317.213	59.0488	118.098	2179.66	242.073	726.552
4506.666667	2636.89	1318.44	355.051	53.5188	107.038	2121.28	216.824	707.094
4506.833333	2594.86	1297.43	390.91	48.0762	96.1525	2059.72	192.302	686.574
4507	2544	1272	420.61	42.7243	85.4485	1995.21	168.536	665.071
4507.166667	2566.49	1283.25	451.172	93.6647	93.6647	1927.99	145.549	642.664
4507.333333	2502.21	1251.1	482.384	80.7593	80.7593	1858.31	123.364	619.435
4507.5	2436.62	1218.31	514.026	68.1001	68.1001	1786.4	102	595.465
4507.666667	2029.36	1014.68	465.056	52.9658	52.9658	1458.37	72.3859	487.159
4507.833333	1614.85	807.425	396.951	39.3978	39.3978	1139.1	47.9928	381.78
4508	1203.48	601.739	316.673	27.3611	27.3611	832.082	28.7036	279.863
4508.166667	796.452	398.226	223.911	16.8145	16.8145	538.912	14.3815	181.928
4508.333333	394.927	197.464	118.416	7.71144	7.71144	261.089	4.87147	88.4782
4508.5	0	0	0	0	0	0	0	0
4508.666667	0	0	0	0	0	0	0	0
4508.833333	0	0	0	0	0	0	0	0
4509	0	0	0	0	0	0	0	0
4509.166667	0	0	0	0	0	0	0	0
4509.333333	0	0	0	0	0	0	0	0
4509.5	0	0	0	0	0	0	0	0
4509.666667	0	0	0	0	0	0	0	0
4509.833333	0	0	0	0	0	0	0	0
4510	0	0	0	0	0	0	0	0
4510.166667	0	0	0	0	0	0	0	0
4510.333333	0	0	0	0	0	0	0	0
4510.5	0	0	0	0	0	0	0	0
4510.666667	0	0	0	0	0	0	0	0
4510.833333	0	0	0	0	0	0	0	0
4511	0	0	0	0	0	0	0	0
4511.166667	0	0	0	0	0	0	0	0
4511.333333	0	0	0	0	0	0	0	0
4511.5	0	0	0	0	0	0	0	0
4511.666667	0	0	0	0	0	0	0	0
4511.833333	0	0	0	0	0	0	0	0
4512	0	0	0	0	0	0	0	0
4512.166667	0	0	0	0	0	0	0	0
4512.333333	0	0	0	0	0	0	0	0
4512.5	0	0	0	0	0	0	0	0
4512.666667	0	0	0	0	0	0	0	0
4512.833333	0	0	0	0	0	0	0	0
4513	0	0	0	0	0	0	0	0
4513.166667	0	0	0	0	0	0	0	0
4513.333333	0	0	0	0	0	0	0	0
4513.5	0	0	0	0	0	0	0	0
4513.666667	0	0	0	0	0	0	0	0
4513.833333	0	0	0	0	0	0	0	0
4514	0	0	0	0	0	0	0	0
4514.166667	0	0	0	0	0	0	0	0
4514.333333	0	0	0	0	0	0	0	0
4514.5	0	0	0	0	0	0	0	0
4514.666667	0	0	0	0	0	0	0	0
4514.833333	0	0	0	0	0	0	0	0
4515	0	0	0	0	0	0	0	0
4515.166667	0	0	0	0	0	0	0	0
4515.333333	0	0	0	0	0	0	0	0
4515.5	0	0	0	0	0	0	0	0
4515.666667	38.88	19.44	6.48	10.8	10.8	10.8	6	3.6
4515.833333	77.76	38.88	12.96	21.6	21.6	21.6	12	7.2
4516	116.64	58.32	19.44	32.4	32.4	32.4	18	10.8
4516.166667	400.511	200.255	98.998	214.352	43.5802	43.5802	25.2674	14.5267
4516.333333	503.208	251.604	118.421	274.668	55.0592	55.0592	33.5305	18.3531
4516.5	606.561	303.281	135.784	337.2	66.7882	66.7882	42.6272	22.2627
4516.666667	830.01	415.005	180.909	496.248	76.4265	76.4265	53.9215	25.4755
4516.833333	1054.04	527.018	218.781	661.554	86.8497	86.8497	67.8322	28.9499
4517	1273.71	636.856	247.36	830.202	98.0755	98.0755	84.4183	32.6918
4517.166667	1491.69	745.844	269.152	1002.3	110.119	110.119	103.729	36.7062
4517.333333	1707.91	853.955	284.746	1177.18	122.991	122.991	125.802	40.9969
4517.5	1922.14	961.068	294.755	1353.98	136.7	136.7	150.667	45.5667
4517.666667	2023.98	1011.99	283.513	1448.41	146.03	146.03	170.1	48.6767
4517.833333	2117.71	1058.85	264.4	1541.73	155.788	155.788	190.96	51.9293
4518	2210.68	1105.34	245.248	1633.5	165.97	165.97	213.233	55.3233
4518.166667	2303.06	1151.53	226.671	1723.25	176.571	176.571	236.902	58.8569
4518.333333	2394.97	1197.48	209.265	1810.54	187.584	187.584	261.946	62.5279
4518.5	2486.52	1243.26	193.605	1894.92	199.001	199.001	288.335	66.3335
4518.666667	1327.01	663.503	175.377	781.066	164.694	205.868	311.226	68.6226
4518.833333	1346.81	673.405	160.67	802.703	170.416	213.02	335.067	71.0067
4519	1369.67	684.835	150.119	822.75	176.356	220.446	359.819	73.4819
4519.166667	1395.8	697.9	144.083	841.08	182.505	228.132	385.439	76.0439
4519.333333	1425.36	712.682	142.877	857.571	188.851	236.064	411.88	78.688
4519.5	1458.57	729.283	146.536	872.108	195.694	244.227	439.091	81.4091
4519.666667	1483.34	741.672	150.823	874.226	206.922	251.372	462.905	83.7905
4519.833333	1512.28	756.142	155.163	873.404	225.113	258.605	487.017	86.2017
4520	1546.18	773.089	159.548	870.505	250.212	265.914	511.379	88.6379
4520.166667	1584.88	792.438	163.969	865.522	282.104	273.281	535.938	91.0938
4520.333333	1628.18	814.088	168.416	858.453	320.615	280.693	560.643	93.5643
4520.5	1674.65	837.327	172.879	848.732	364.911	288.132	585.44	96.044
4520.666667	1716.98	858.49	177.484	831.581	412.108	295.807	608.525	98.6025
4520.833333	1761.99	880.994	182.062	812.65	463.839	303.437	631.455	101.146
4521	1809.3	904.649	186.603	792.005	519.686	311.004	654.181	103.668
4521.166667	1858.49	929.244	191.097	769.713	579.183	318.495	676.652	106.165
4521.333333	1906.75	953.377	195.537	743.496	641.825	325.895	698.817	108.632
4521.5	1952.85	976.423	199.913	712.681	707.064	333.188	720.627	111.063
4521.666667	1995.63	997.813	204.848	677.595	771.768	341.414	738.879	113.805
4521.833333	2025.05	1012.53	209.67	642.171	823.762	349.449	756.498	116.483
4522	2053.02	1026.51	214.371	606.546	874.816	357.285	773.449	119.095
4522.166667	2070.48	1035.24	218.946	561.907	924.721	364.91	789.699	121.637
4522.333333	2086.22	1043.11	223.389	517.418	973.101	372.315	805.217	124.105
4522.5	2101.38	1050.69	227.695	474.606	1019.58	379.491	819.971	126.497
4522.666667	2114.31	1057.15	232.974	432.619	1060.42	388.291	830.969	129.43
4522.833333	2120.82	1060.41	238.087	387.728	1098.19	396.812	841.039	132.271
4523	2121.92	1060.96	243.031	341.217	1132.62	405.052	850.172	135.017
4523.166667	2124.71	1062.36	247.805	300.443	1163.46	413.008	858.361	137.669
4523.333333	2129.12	1064.56	252.408	265.555	1190.48	420.68	865.6	140.227
4523.5	2134.87	1067.43	256.839	236.459	1213.5	428.066	871.886	142.689
4523.666667	2114.17	1057.09	256.108	208.668	1222.55	426.846	870.321	142.282
4523.833333	2095.94	1047.97	255.201	188.157	1227.24	425.335	867.783	141.778
4524	2080.09	1040.04	254.121	174.884	1227.55	423.535	864.284	141.178
4524.166667	2066.57	1033.29	252.871	168.775	1223.47	421.451	859.837	140.484
4524.333333	2058.47	1029.23	251.453	167.635	1215.07	424.309	854.459	166.271
4524.5	2062.86	1031.43	249.87	166.58	1202.43	443.978	848.168	199.625
4524.666667	2100.24	1050.12	257.438	171.625	1176.8	494.374	834.376	235.165
4524.833333	2147.72	1073.86	264.875	176.583	1147.9	558.364	819.86	268.338
4525	2201.82	1100.91	272.197	181.465	1116.23	631.93	804.707	299.111
4525.166667	2259.32	1129.66	279.422	186.281	1082.29	711.325	789.011	327.459
4525.333333	2321.53	1160.77	286.565	191.043	1046.61	797.311	772.86	353.366
4525.5	2387.37	1193.69	293.643	195.762	1009.71	888.256	756.347	376.825
4525.666667	2481.02	1240.51	293.334	195.556	995.595	996.531	759.634	407.205
4525.833333	2558.4	1279.2	292.857	195.238	978.108	1092.2	761.985	437.962
4526	2639.97	1319.99	292.208	194.805	957.378	1195.58	763.378	469.016
4526.166667	2725.75	1362.88	291.382	194.255	933.563	1306.55	763.791	500.287
4526.333333	2815.76	1407.88	290.377	193.584	906.853	1424.94	763.204	531.691
4526.5	2894.02	1447.01	289.188	192.792	877.463	1534.57	761.6	563.144
4526.666667	2933.44	1466.72	277.133	184.756	836.606	1634.94	754.63	593.527
4526.833333	2967.98	1483.99	264.843	176.562	786.402	1740.17	746.349	624.316
4527	2998.56	1499.28	252.311	168.207	728.11	1849.94	736.727	655.392
4527.166667	3029.24	1514.62	239.533	159.688	667.961	1962.06	725.736	686.63
4527.333333	3048.5	1524.25	226.504	151.003	606.646	2064.35	713.355	717.904
4527.5	3068.41	1534.21	213.221	142.148	544.903	2168.14	699.564	749.084
4527.666667	3055.64	1527.82	205.615	137.077	485.249	2227.7	675.64	764.313
4527.833333	3043.03	1521.51	197.936	131.957	429.62	2283.52	651.312	778.024
4528	3027.12	1513.56	190.192	126.794	377.698	2332.44	626.621	790.201
4528.166667	3005.14	1502.57	182.39	121.593	329.412	2371.74	601.611	800.831
4528.333333	2984.87	1492.43	174.539	116.359	287.435	2406.53	576.325	809.904
4528.5	2966.63	1483.31	166.645	111.097	252.2	2436.68	550.807	817.414
4528.666667	2859.63	1429.82	161.375	107.583	227.053	2363.62	509.859	790.418
4528.833333	2753.33	1376.66	156.411	104.274	210.755	2281.89	470.615	760.825
4529	2641.96	1320.98	151.889	101.18	202.359	2186.54	433.164	728.845
4529.166667	2530.08	1265.04	151.076	98.3107	196.621	2084.07	397.589	694.691
4529.333333	2417.64	1208.82	154.867	95.6757	191.351	1975.75	363.964	658.583
4529.5	2304.51	1152.26	162.423	93.2826	186.565	1862.24	332.355	620.748
4529.666667	2119.69	1059.84	168.219	88.9153	177.831	1684.72	293.461	561.575
4529.833333	1932.57	966.286	174.681	84.9184	169.837	1503.13	257.653	501.045
4530	1741.87	870.933	179.478	81.2975	162.595	1318.5	224.979	439.498
4530.166667	1547.5	773.749	181.493	78.0571	156.114	1131.83	195.475	377.278
4530.333333	1349.59	674.797	179.81	75.1999	150.4	944.184	169.166	314.728
4530.5	1293.26	646.631	173.046	181.819	181.819	756.578	146.063	252.193
4530.666667	1110.05	555.024	159.919	157.742	157.742	634.645	121.641	211.548
4530.833333	924.062	462.031	142.374	134.18	134.18	513.326	98.9347	171.109
4531	734.993	367.497	119.565	111.131	111.131	393.167	77.9357	131.056
4531.166667	544.857	272.428	92.9737	88.5887	88.5887	274.706	58.6289	91.5686
4531.333333	353.807	176.903	62.2352	66.5479	66.5479	158.476	40.9929	52.8253
4531.5	162	81	27	45	45	45	25	15
4531.666667	135	67.5	22.5	37.5	37.5	37.5	20.8333	12.5
4531.833333	108	54	18	30	30	30	16.6667	10
4532	81	40.5	13.5	22.5	22.5	22.5	12.5	7.5
4532.166667	54	27	9	15	15	15	8.33333	5
4532.333333	27	13.5	4.5	7.5	7.5	7.5	4.16667	2.5
4532.5	0	0	0	0	0	0	0	0
4532.666667	0	0	0	0	0	0	0	0
4532.833333	0	0	0	0	0	0	0	0
4533	0	0	0	0	0	0	0	0
4533.166667	0	0	0	0	0	0	0	0
4533.333333	0	0	0	0	0	0	0	0
4533.5	0	0	0	0	0	0	0	0
4533.666667	0	0	0	0	0	0	0	0
4533.833333	0	0	0	0	0	0	0	0
4534	0	0	0	0	0	0	0	0
4534.166667	0	0	0	0	0	0	0	0
4534.333333	0	0	0	0	0	0	0	0
4534.5	0	0	0	0	0	0	0	0
4534.666667	0	0	0	0	0	0	0	0
4534.833333	0	0	0	0	0	0	0	0
4535	0	0	0	0	0	0	0	0
4535.166667	0	0	0	0	0	0	0	0
4535.333333	0	0	0	0	0	0	0	0
4535.5	0	0	0	0	0	0	0	0
4535.666667	0	0	0	0	0	0	0	0
4535.833333	0	0	0	0	0	0	0	0
4536	0	0	0	0	0	0	0	0
4536.166667	0	0	0	0	0	0	0	0
4536.333333	0	0	0	0	0	0	0	0
4536.5	0	0	0	0	0	0	0	0
4536.666667	0	0	0	0	0	0	0	0
4536.833333	0	0	0	0	0	0	0	0
4537	0	0	0	0	0	0	0	0
4537.166667	0	0	0	0	0	0	0	0
4537.333333	0	0	0	0	0	0	0	0
4537.5	0	0	0	0	0	0	0	0
4537.666667	0	0	0	0	0	0	0	0
4537.833333	0	0	0	0	0	0	0	0
4538	0	0	0	0	0	0	0	0
4538.166667	0	0	0	0	0	0	0	0
4538.333333	0	0	0	0	0	0	0	0
4538.5	0	0	0	0	0	0	0	0
4538.666667	0	0	0	0	0	0	0	0
4538.833333	0	0	0	0	0	0	0	0
4539	0	0	0	0	0	0	0	0
4539.166667	0	0	0	0	0	0	0	0
4539.333333	0	0	0	0	0	0	0	0
4539.5	0	0	0	0	0	0	0	0
4539.666667	35.64	17.82	5.94	9.9	9.9	9.9	5.5	3.3
4539.833333	71.28	35.64	11.88	19.8	19.8	19.8	11	6.6
4540	106.92	53.46	17.82	29.7	29.7	29.7	16.5	9.9
4540.166667	248.139	124.069	55.2324	113.416	39.7452	39.7452	22.4839	13.2484
4540.333333	311.288	155.644	66.7439	144.677	49.9333	49.9333	28.9444	16.6444
4540.5	374.722	187.361	77.3671	176.896	60.2294	60.2294	35.7645	20.0765
4540.666667	539.374	269.687	108.75	268.042	81.291	81.291	50.1366	27.097
4540.833333	704.318	352.159	136.713	362.161	102.722	102.722	65.7385	34.2405
4541	867.292	433.646	160.362	457.871	124.529	124.529	82.598	41.5098
4541.166667	1029.51	514.756	180.806	555.264	146.722	146.722	100.738	48.9072
4541.333333	1190.92	595.461	198.321	653.994	169.304	169.304	120.178	56.4345
4541.5	1351.41	675.703	213.196	753.65	192.28	192.28	140.932	64.0932
4541.666667	1398.02	699.012	210.514	754.489	216.511	216.511	156.702	72.1702
4541.833333	1442.42	721.209	207.384	753.826	240.604	240.604	172.014	80.2015
4542	1487.78	743.892	206.861	751.808	264.557	264.557	186.857	88.1858
4542.166667	1534.06	767.029	208.739	748.587	288.366	288.366	201.219	96.122
4542.333333	1581.18	790.59	212.807	744.317	312.028	312.028	215.092	104.009
4542.5	1629.08	814.54	218.845	739.155	335.54	335.54	228.467	111.847
4542.666667	1561.39	780.693	211.895	676.462	336.514	336.514	225.046	112.171
4542.833333	1495.03	747.516	207.284	613.44	337.153	337.153	220.511	112.384
4543	1429.87	714.936	204.507	550.446	337.46	337.46	214.866	112.487
4543.166667	1365.73	682.866	203.022	487.837	337.436	337.436	208.121	112.479
4543.333333	1302.45	651.223	202.305	425.967	337.087	337.087	200.288	112.362
4543.5	1239.88	619.938	201.85	365.187	336.423	336.416	191.387	112.139
4543.666667	1485.5	742.749	228.104	496.59	380.631	380.173	230.577	126.724
4543.833333	1730.37	865.183	254.637	624.509	426.825	424.395	271.316	141.465
4544	1430.73	715.367	281.44	299.389	380.836	469.067	313.557	156.356
4544.166667	1593.27	796.636	308.505	347.199	423.392	514.175	357.25	171.392
4544.333333	1758.38	879.189	335.821	393.055	469.801	559.701	402.337	186.567
4544.5	1926.14	963.068	363.376	436.672	520.463	605.626	448.754	201.875
4544.666667	2003.95	1001.98	378.253	443.483	551.795	630.421	468.904	210.14
4544.833333	2082.65	1041.33	393.141	449.646	584.629	655.235	489.115	218.412
4545	2162.15	1081.07	408.036	455.169	618.88	680.06	509.367	226.687
4545.166667	2242.34	1121.17	422.936	460.06	654.447	704.893	529.642	234.964
4545.333333	2322.5	1161.25	437.836	463.728	691.209	729.726	549.92	243.242
4545.5	2402.16	1201.08	452.733	465.844	729.028	754.555	570.182	251.518
4545.666667	2292.43	1146.21	436.261	424.1	704.965	727.102	538.671	242.367
4545.833333	2178.04	1089.02	419.585	385.14	674.011	699.308	506.026	233.103
4546	2062.46	1031.23	402.718	348.988	639.555	671.197	472.322	223.732
4546.166667	1944.59	972.296	385.675	314.456	601.668	642.792	437.638	214.264
4546.333333	1826.38	913.191	368.47	283.32	560.475	614.117	402.055	204.706
4546.5	1708.14	854.071	351.119	255.675	516.151	585.198	365.659	195.066
4546.666667	1658.36	829.178	342.511	244.512	500.482	570.851	352.836	190.284
4546.833333	1608.29	804.145	333.866	233.97	484.01	556.443	339.81	185.481
4547	1558.12	779.06	325.189	224.154	466.796	541.981	326.604	180.66
4547.166667	1508.24	754.119	316.483	215.365	448.916	527.472	313.24	175.824
4547.333333	1458.6	729.299	307.754	207.465	430.456	512.923	299.744	170.974
4547.5	1409.16	704.579	299.005	200.301	411.51	498.341	286.138	166.114
4547.666667	1402.81	701.406	296.446	198.436	413.853	494.077	287.757	164.692
4547.833333	1396.42	698.211	293.891	196.429	416.283	489.819	289.395	163.273
4548	1390.03	695.015	291.336	194.414	418.72	485.56	291.034	161.853
4548.166667	1383.68	691.841	288.778	192.528	421.079	481.297	292.656	160.432
4548.333333	1377.56	688.779	286.214	190.809	423.276	477.259	294.243	160.235
4548.5	1372.16	686.078	283.64	189.093	425.231	474.191	295.777	160.824
4548.666667	1328.75	664.376	275.232	183.488	408.136	461.896	284.067	157.408
4548.833333	1285.51	642.757	266.822	177.881	390.99	449.821	272.345	153.556
4549	1242.12	621.058	258.413	172.275	373.873	437.554	260.628	149.271
4549.166667	1198.29	599.144	250.008	166.672	356.866	424.742	248.934	144.555
4549.333333	1153.94	576.972	241.61	161.074	340.044	411.216	237.279	139.416
4549.5	1108.9	554.448	233.223	155.482	323.481	396.711	225.681	133.862
4549.666667	976.502	488.251	205.314	136.876	283.774	350.539	198.133	118.082
4549.833333	843.39	421.695	177.411	118.274	244.208	303.497	170.616	102.123
4550	910.667	455.334	149.515	249.191	256.013	255.948	143.138	85.9891
4550.166667	739.187	369.593	121.627	202.711	207.005	207.844	115.704	69.6866
4550.333333	567.396	283.698	93.7481	156.247	158.261	159.14	88.3228	53.2214
4550.5	395.28	197.64	65.88	109.8	109.8	109.8	61	36.6
4550.666667	347.76	173.88	57.96	96.6	96.6	96.6	53.6667	32.2
4550.833333	300.24	150.12	50.04	83.4	83.4	83.4	46.3333	27.8
4551	252.72	126.36	42.12	70.2	70.2	70.2	39	23.4
4551.166667	205.2	102.6	34.2	57	57	57	31.6667	19
4551.333333	157.68	78.84	26.28	43.8	43.8	43.8	24.3333	14.6
4551.5	110.16	55.08	18.36	30.6	30.6	30.6	17	10.2
4551.666667	419.703	209.852	45.0578	75.0963	93.6979	205.851	75.3208	70.1218
4551.833333	729.833	364.916	71.3158	118.86	148.279	391.378	131.199	132.801
4552	1040.07	520.036	97.1131	161.855	195.227	585.876	184.517	197.96
4552.166667	1349.05	674.525	122.431	204.051	235.266	787.302	235.17	265.312
4552.333333	1658.66	829.332	147.251	245.418	270.476	995.52	283.059	334.56
4552.5	1737.71	868.856	171.558	114.372	242.156	1209.63	328.099	405.399
4552.666667	1593.95	796.975	161.011	107.34	219.763	1105.84	292.837	369.6
4552.833333	1449.47	724.733	150.785	100.523	201.989	996.168	259.361	332.099
4553	1302.01	651.004	140.913	93.9282	187.856	879.31	227.735	293.103
4553.166667	1153.46	576.728	132.303	87.562	175.124	758.467	198.016	252.822
4553.333333	1003.52	501.76	124.817	81.4306	162.861	634.412	170.255	211.471
4553.5	1003.05	501.527	117.558	188.848	188.848	507.8	144.492	169.267
4553.666667	903.742	451.871	110.098	172.868	172.868	447.908	127.892	149.303
4553.833333	803.941	401.971	102.526	157.129	157.129	387.157	112.097	129.052
4554	703.407	351.703	94.3218	141.636	141.636	325.814	97.1183	108.605
4554.166667	602.089	301.045	85.1672	126.389	126.389	264.144	82.9635	88.0479
4554.333333	499.994	249.997	74.7973	111.391	111.391	202.415	69.637	67.4716
4554.5	397.031	198.515	62.8528	96.6421	96.6421	140.894	57.1403	46.9646
4554.666667	349.626	174.813	56.2959	85.537	85.537	122.256	50.1234	40.7519
4554.833333	302.018	151.009	49.4106	74.4716	74.4716	103.664	43.2386	34.5548
4555	254.164	127.082	42.111	63.4456	63.4456	85.162	36.4853	28.3873
4555.166667	206.229	103.114	34.5213	52.4587	52.4587	66.7899	29.8622	22.2633
4555.333333	158.223	79.1116	26.6133	41.5104	41.5104	48.5891	23.3679	16.1964
4555.5	110.16	55.08	18.36	30.6	30.6	30.6	17	10.2
4555.666667	91.8	45.9	15.3	25.5	25.5	25.5	14.1667	8.5
4555.833333	73.44	36.72	12.24	20.4	20.4	20.4	11.3333	6.8
4556	55.08	27.54	9.18	15.3	15.3	15.3	8.5	5.1
4556.166667	36.72	18.36	6.12	10.2	10.2	10.2	5.66667	3.4
4556.333333	18.36	9.18	3.06	5.1	5.1	5.1	2.83333	1.7
4556.5	0	0	0	0	0	0	0	0
4556.666667	0	0	0	0	0	0	0	0
4556.833333	0	0	0	0	0	0	0	0
4557	0	0	0	0	0	0	0	0
4557.166667	0	0	0	0	0	0	0	0
4557.333333	0	0	0	0	0	0	0	0
4557.5	0	0	0	0	0	0	0	0
4557.666667	0	0	0	0	0	0	0	0
4557.833333	0	0	0	0	0	0	0	0
4558	0	0	0	0	0	0	0	0
4558.166667	0	0	0	0	0	0	0	0
4558.333333	0	0	0	0	0	0	0	0
4558.5	0	0	0	0	0	0	0	0
4558.666667	0	0	0	0	0	0	0	0
4558.833333	0	0	0	0	0	0	0	0
4559	0	0	0	0	0	0	0	0
4559.166667	0	0	0	0	0	0	0	0
4559.333333	0	0	0	0	0	0	0	0
4559.5	0	0	0	0	0	0	0	0
4559.666667	0	0	0	0	0	0	0	0
4559.833333	0	0	0	0	0	0	0	0
4560	0	0	0	0	0	0	0	0
4560.166667	0	0	0	0	0	0	0	0
4560.333333	0	0	0	0	0	0	0	0
4560.5	0	0	0	0	0	0	0	0
4560.666667	0	0	0	0	0	0	0	0
4560.833333	0	0	0	0	0	0	0	0
4561	0	0	0	0	0	0	0	0
4561.166667	0	0	0	0	0	0	0	0
4561.333333	0	0	0	0	0	0	0	0
4561.5	0	0	0	0	0	0	0	0
4561.666667	0	0	0	0	0	0	0	0
4561.833333	0	0	0	0	0	0	0	0
4562	0	0	0	0	0	0	0	0
4562.166667	0	0	0	0	0	0	0	0
4562.333333	0	0	0	0	0	0	0	0
4562.5	0	0	0	0	0	0	0	0
4562.666667	0	0	0	0	0	0	0	0
4562.833333	0	0	0	0	0	0	0	0
4563	0	0	0	0	0	0	0	0
4563.166667	0	0	0	0	0	0	0	0
4563.333333	0	0	0	0	0	0	0	0
4563.5	0	0	0	0	0	0	0	0
4563.666667	23.76	11.88	3.96	6.6	6.6	6.6	3.66667	2.2
4563.833333	47.52	23.76	7.92	13.2	13.2	13.2	7.33333	4.4
4564	71.28	35.64	11.88	19.8	19.8	19.8	11	6.6
4564.166667	95.04	47.52	15.84	26.4	26.4	26.4	14.6667	8.8
4564.333333	118.8	59.4	19.8	33	33	33	18.3333	11
4564.5	142.56	71.28	23.76	39.6	39.6	39.6	22	13.2
4564.666667	187.92	93.96	31.32	52.2	52.2	52.2	29	17.4
4564.833333	233.28	116.64	38.88	64.8	64.8	64.8	36	21.6
4565	278.64	139.32	46.44	77.4	77.4	77.4	43	25.8
4565.166667	324	162	54	90	90	90	50	30
4565.333333	369.36	184.68	61.56	102.6	102.6	102.6	57	34.2
4565.5	414.72	207.36	69.12	115.2	115.2	115.2	64	38.4
4565.666667	470.163	235.081	78.089	134.964	128.555	128.555	71.849	42.8516
4565.833333	525.459	262.729	86.7409	154.83	141.944	141.944	79.8121	47.3146
4566	580.622	290.311	95.1253	174.762	155.367	155.367	87.89	51.789
4566.166667	635.665	317.833	103.292	194.723	168.825	168.825	96.0829	56.275
4566.333333	690.601	345.301	111.292	214.675	182.317	182.317	104.391	60.7724
4566.5	745.443	372.722	119.173	234.582	195.844	195.844	112.813	65.2813
4566.666667	807.205	403.603	129.235	250.787	213.592	213.592	122.805	71.1972
4566.833333	869.023	434.512	139.432	266.928	231.332	231.332	132.772	77.1105
4567	930.894	465.447	149.755	283.012	249.063	249.063	142.711	83.0211
4567.166667	992.812	496.406	160.188	299.049	266.787	266.787	152.624	88.9291
4567.333333	1054.77	527.385	170.718	315.046	284.503	284.503	162.509	94.8343
4567.5	1116.77	558.384	181.326	331.012	302.219	302.21	172.368	100.737
4567.666667	1105.87	552.935	179.721	326.964	299.648	299.535	170.951	99.8451
4567.833333	1094.99	547.496	178.113	322.846	297.179	296.855	169.515	98.9515
4568	1084.17	542.086	176.501	318.711	294.793	294.168	168.059	98.0559
4568.166667	1073.4	536.7	174.885	314.566	292.474	291.475	166.583	97.1584
4568.333333	1062.67	531.333	173.266	310.418	290.205	288.777	165.089	96.2589
4568.5	1051.94	525.97	171.644	306.265	287.959	286.073	163.575	95.3575
4568.666667	1374.35	687.176	206.142	465.772	358.867	343.571	221.068	114.524
4568.833333	1696.42	848.212	240.973	617.185	436.646	401.621	280.403	133.874
4569	1457.88	728.939	276.117	304.024	417.543	460.195	341.482	153.398
4569.166667	1680.57	840.285	311.556	357.603	492.151	519.26	404.2	173.087
4569.333333	1906.36	953.179	347.27	406.917	573.388	578.784	468.446	192.928
4569.5	2134.37	1067.19	383.239	451.034	661.368	638.731	534.103	212.91
4569.666667	2179.13	1089.56	380.246	463.296	701.841	633.743	563.311	211.248
4569.833333	2221.16	1110.58	377.45	471.515	743.114	629.083	593.61	209.694
4570	2263.92	1131.96	374.827	475.756	788.625	624.712	624.873	208.237
4570.166667	2302.55	1151.28	372.355	471.605	838.002	620.591	656.969	206.864
4570.333333	2340.05	1170.03	370.007	462.562	890.803	616.679	689.762	205.56
4570.5	2377.17	1188.59	367.761	449.961	946.519	612.934	723.115	204.311
4570.666667	2347.66	1173.83	366.168	416.112	955.102	610.28	716.766	203.427
4570.833333	2314.63	1157.32	364.428	382.084	960.74	607.379	709.598	202.46
4571	2278.24	1139.12	362.546	348.06	963.394	604.243	701.642	201.414
4571.166667	2243.21	1121.6	360.528	318.74	963.059	600.88	692.933	200.293
4571.333333	2209.41	1104.71	358.381	293.967	959.76	597.302	683.508	199.101
4571.5	2176.67	1088.34	356.113	273.481	953.557	593.522	673.405	197.841
4571.666667	2215.85	1107.92	379.629	271.604	931.899	632.714	653.215	210.905
4571.833333	2257.19	1128.59	402.987	276.295	906.26	671.646	632.152	223.882
4572	2300.18	1150.09	426.224	286.129	877.456	710.373	610.409	236.791
4572.166667	2344.2	1172.1	449.373	299.65	846.221	748.955	588.181	249.652
4572.333333	2389.79	1194.9	472.47	314.98	813.892	788.449	565.663	267.77
4572.5	2436.62	1218.31	495.549	330.366	781.133	829.568	543.051	283.499
4572.666667	2346.44	1173.22	472.083	314.722	762.701	796.932	531.017	276.687
4572.833333	2259.34	1129.67	448.577	299.052	743.259	768.455	518.762	270.934
4573	2175.5	1087.75	425.024	283.349	722.629	744.499	506.243	266.215
4573.166667	2094.84	1047.42	401.415	267.61	700.646	725.174	493.417	262.5
4573.333333	2018.28	1009.14	377.744	251.829	677.166	711.538	480.242	259.758
4573.5	1946.23	973.117	354.002	236.002	652.061	704.168	466.679	257.95
4573.666667	1984.35	992.173	345.093	230.062	664.861	744.33	482.184	273.179
4573.833333	2022.66	1011.33	336.021	224.014	673.99	788.636	496.781	290.909
4574	2067.45	1033.73	326.766	217.844	679.18	843.661	510.365	311.036
4574.166667	2119.02	1059.51	317.31	211.54	680.219	909.955	522.835	333.446
4574.333333	2177.67	1088.83	307.637	205.091	676.957	987.982	534.095	358.016
4574.5	2234.98	1117.49	297.729	198.486	669.302	1069.46	544.052	384.614
4574.666667	2363.31	1181.66	296.937	197.958	677.71	1190.71	569.648	425.7
4574.833333	2493.94	1246.97	295.805	197.204	677.763	1323.17	593.362	469.332
4575	2623.59	1311.79	294.315	196.21	666.42	1466.64	615.082	515.305
4575.166667	2755.84	1377.92	292.446	194.964	648.982	1619.45	634.702	563.407
4575.333333	2881.86	1440.93	290.182	193.455	626.093	1772.13	652.122	613.412
4575.5	3009.78	1504.89	287.505	191.67	598.529	1932.07	667.251	665.09
4575.666667	2748.85	1374.43	269.809	179.872	514.247	1784.93	592.27	610.298
4575.833333	2484.43	1242.22	252.644	168.43	442.416	1620.94	520.246	550.578
4576	2214.7	1107.35	236.047	157.364	382.088	1439.2	451.37	486.29
4576.166667	1939.14	969.569	220.048	146.699	331.83	1240.56	385.822	417.809
4576.333333	1662.2	831.099	204.678	136.452	291.914	1029.15	323.765	345.526
4576.5	1383.42	691.708	189.963	126.642	260.714	806.097	265.352	269.844
4576.666667	1279.64	639.818	181.956	121.304	245.383	730.994	241.699	244.153
4576.833333	1175.22	587.608	174.171	116.114	232.755	652.178	219.28	217.398
4577	1069.01	534.504	166.619	111.077	222.153	569.16	198.139	189.72
4577.166667	962.023	481.012	159.645	106.197	212.395	483.786	178.311	161.262
4577.333333	854.008	427.004	153.056	101.479	202.959	396.514	159.827	132.171
4577.5	938.648	469.324	146.229	242.315	242.315	307.791	142.715	102.597
4577.666667	993.486	496.743	140.25	227.315	227.315	398.607	146.049	132.869
4577.833333	1050.15	525.077	136.799	211.751	211.751	489.853	147.504	163.284
4578	1108.73	554.365	136.57	195.62	195.62	580.921	147.067	193.64
4578.166667	1169.24	584.622	140.203	178.921	178.921	671.2	144.735	223.733
4578.333333	1232.04	616.02	148.646	161.654	161.654	760.085	140.512	253.362
4578.5	1297.34	648.669	162.722	143.822	143.822	846.972	134.407	282.324
4578.666667	1114.51	557.256	153.664	125.794	125.794	709.261	110.979	236.42
4578.833333	928.659	464.33	139.58	108.395	108.395	572.289	89.6501	190.763
4579	738.735	369.368	118.768	91.6229	91.6229	436.721	70.4097	145.574
4579.166667	547.525	273.762	93.363	75.472	75.472	303.218	53.2399	101.073
4579.333333	355.216	177.608	62.9163	59.9344	59.9344	172.431	38.1145	57.4769
4579.5	162	81	27	45	45	45	25	15
4579.666667	135	67.5	22.5	37.5	37.5	37.5	20.8333	12.5
4579.833333	108	54	18	30	30	30	16.6667	10
4580	81	40.5	13.5	22.5	22.5	22.5	12.5	7.5
4580.166667	54	27	9	15	15	15	8.33333	5
4580.333333	27	13.5	4.5	7.5	7.5	7.5	4.16667	2.5
4580.5	0	0	0	0	0	0	0	0
4580.666667	0	0	0	0	0	0	0	0
4580.833333	0	0	0	0	0	0	0	0
4581	0	0	0	0	0	0	0	0
4581.166667	0	0	0	0	0	0	0	0
4581.333333	0	0	0	0	0	0	0	0
4581.5	0	0	0	0	0	0	0	0
4581.666667	0	0	0	0	0	0	0	0
4581.833333	0	0	0	0	0	0	0	0
4582	0	0	0	0	0	0	0	0
4582.166667	0	0	0	0	0	0	0	0
4582.333333	0	0	0	0	0	0	0	0
4582.5	0	0	0	0	0	0	0	0
4582.666667	0	0	0	0	0	0	0	0
4582.833333	0	0	0	0	0	0	0	0
4583	0	0	0	0	0	0	0	0
4583.166667	0	0	0	0	0	0	0	0
4583.333333	0	0	0	0	0	0	0	0
4583.5	0	0	0	0	0	0	0	0
4583.666667	0	0	0	0	0	0	0	0
4583.833333	0	0	0	0	0	0	0	0
4584	0	0	0	0	0	0	0	0
