Time [h]	Zone(id=1).VentilationHeatLoad [W]	Zone(id=1).ConstructionHeatConductionLoad [W]	ConstructionInstance(id=3001).ActiveLayerThermalLoad [W]
0	-151.529	0	7.07236e-12
0.5	-142.778	136.465	10.1722
1	-141.641	137.802	7.34122
1.5	-140.724	137.183	6.79505
2	-139.911	137.929	581.9
2.5	-140.383	145.387	716.571
3	-141.501	142.872	22.8966
3.5	-141.199	138.568	7.56022
4	-140.471	137.457	12.8758
4.5	-140.182	143.314	764.683
5	-141.461	145.055	47.8247
5.5	-141.49	139.43	7.21586
6	-140.843	138.034	255.341
6.5	-140.84	145.365	761.484
7	-142.463	149.769	730.882
7.5	-144.277	151.377	706.093
8	-145.999	152.678	686
8.5	-147.618	153.898	668.727
9	-149.142	155.06	653.272
9.5	-150.58	156.169	639.092
10	-151.939	157.228	625.883
10.5	-153.226	158.241	613.466
11	-154.448	159.21	601.727
11.5	-155.609	160.138	590.586
12	-156.714	161.028	579.986
12.5	-157.767	161.882	569.879
13	-158.773	162.703	560.225
13.5	-159.734	163.495	550.989
14	-160.654	164.256	496.489
14.5	-161.185	160.45	18.0591
15	-160.539	156.975	248.213
15.5	-160.155	161.868	563.348
16	-160.93	164.446	165.118
16.5	-161.121	159.13	10.4116
17	-160.373	157.075	470.353
17.5	-160.337	163.181	561.172
18	-161.188	163.412	53.9684
18.5	-161.018	158.398	7.7846
19	-160.239	156.92	7.87694
19.5	-159.412	156.14	7.85007
20	-158.608	155.457	7.6582
20.5	-157.837	154.813	7.45145
21	-157.096	154.198	7.24337
21.5	-156.387	153.607	7.04636
22	-155.706	153.037	6.86153
22.5	-155.052	152.487	6.68938
23	-154.423	151.956	6.52909
23.5	-153.818	151.441	6.3811
24	-153.234	150.94	6.24505
24.5	-152.671	150.455	6.11911
25	-152.126	149.982	6.00297
25.5	-151.598	149.521	5.89577
26	-151.087	149.072	5.7969
26.5	-150.591	148.634	5.70572
27	-150.108	148.205	5.62171
27.5	-149.639	147.786	5.54433
28	-149.181	147.375	5.47307
28.5	-148.735	146.972	5.40749
29	-148.299	146.576	5.34716
29.5	-147.873	146.188	5.29169
30	-147.456	145.806	158.036
30.5	-147.65	152.575	695.098
31	-149.347	156.884	663.384
31.5	-151.208	158.458	637.819
32	-152.959	159.717	617.328
32.5	-154.59	160.89	599.913
33	-156.112	161.997	584.5
33.5	-157.536	163.045	570.503
34	-158.87	164.038	557.588
34.5	-160.122	164.98	545.558
35	-161.257	164.537	67.5143
35.5	-161.307	159.319	7.20004
36	-160.655	157.768	9.85043
36.5	-160.286	161.998	563.988
37	-161.165	164.695	84.1429
37.5	-161.301	159.539	7.32868
38	-160.688	157.926	9.17861
38.5	-160.306	161.892	565.926
39	-161.184	164.63	75.2921
39.5	-161.306	159.582	7.02699
40	-160.714	158.058	8.79363
40.5	-160.317	161.723	566.215
41	-161.192	164.755	76.7238
41.5	-161.344	159.732	6.81464
42	-160.778	158.215	7.43875
42.5	-160.13	157.542	6.57149
43	-159.49	156.965	6.47198
43.5	-158.869	156.423	6.3277
44	-158.267	155.902	6.22618
44.5	-157.686	155.398	6.0993
45	-157.123	154.908	5.99305
45.5	-156.578	154.432	5.87174
46	-156.05	153.967	5.77006
46.5	-155.537	153.514	5.67603
47	-155.038	153.071	5.58802
47.5	-154.553	152.636	5.51424
48	-154.08	152.21	5.44443
48.5	-153.619	151.797	5.36748
49	-153.168	151.386	5.30607
49.5	-152.728	150.985	5.24737
50	-152.297	150.59	5.19498
50.5	-151.874	150.201	5.14666
51	-151.46	149.818	5.1022
51.5	-151.053	149.441	5.06153
52	-150.654	149.068	5.02427
52.5	-150.26	148.7	4.9902
53	-149.873	148.337	4.95901
53.5	-149.492	147.978	4.93055
54	-149.116	147.623	140.325
54.5	-149.327	154.217	678.164
55	-151.006	158.453	646.831
55.5	-152.843	159.995	621.655
56	-154.57	161.23	601.482
56.5	-156.176	162.377	584.352
57	-157.674	163.46	569.203
57.5	-159.073	164.483	555.46
58	-160.382	165.452	542.796
58.5	-161.449	163.384	29.8794
59	-161.288	159.103	6.51943
59.5	-160.651	157.947	10.6715
60	-160.353	162.385	563.571
60.5	-161.257	164.287	56.6691
61	-161.294	159.463	6.69564
61.5	-160.703	158.102	8.89192
62	-160.342	161.956	565.929
62.5	-161.234	164.575	64.766
63	-161.339	159.676	6.58814
63.5	-160.777	158.262	7.9594
64	-160.317	161.025	565.072
64.5	-161.147	165.183	100.614
65	-161.431	160.152	6.81401
65.5	-160.917	158.494	7.13187
66	-160.34	159.195	423.558
66.5	-160.494	160.324	14.5528
67	-160.132	157.972	5.99768
67.5	-159.557	157.209	6.15746
68	-158.974	156.669	6.1096
68.5	-158.406	156.166	6.01082
69	-157.854	155.679	5.90751
69.5	-157.318	155.207	5.80717
70	-156.798	154.747	5.71226
70.5	-156.293	154.298	5.62362
71	-155.801	153.859	5.54176
71.5	-155.321	153.429	5.46628
72	-154.854	153.007	5.3962
72.5	-154.398	152.594	5.33178
73	-153.952	152.187	5.27337
73.5	-153.515	151.787	5.21918
74	-153.088	151.394	5.16906
74.5	-152.668	151.007	5.12322
75	-152.257	150.625	5.08124
75.5	-151.852	150.248	5.04283
76	-151.455	149.877	5.00738
76.5	-151.063	149.51	4.97519
77	-150.678	149.147	4.94568
77.5	-150.298	148.788	4.91878
78	-149.923	148.437	105.476
78.5	-150.115	154.883	670.725
79	-151.767	159.112	639.425
79.5	-153.579	160.635	614.502
80	-155.282	161.852	594.568
80.5	-156.867	162.982	577.653
81	-158.343	164.048	562.706
81.5	-159.722	165.056	549.156
82	-161.011	165.852	175.915
82.5	-161.519	160.67	8.17995
83	-161.025	158.496	6.98954
83.5	-160.379	158.214	507.778
84	-160.697	164.693	421.748
84.5	-161.442	161.72	13.7203
85	-161.084	158.748	6.66389
85.5	-160.458	157.994	447.531
86	-160.614	164.336	559.769
86.5	-161.446	162.306	17.3839
87	-161.169	158.977	6.47073
87.5	-160.566	158.075	238.951
88	-160.495	163.56	563.163
88.5	-161.406	163.206	26.8069
89	-161.262	159.285	6.20852
89.5	-160.688	158.26	8.71801
90	-160.386	162.282	466.203
90.5	-160.992	161.461	14.4726
91	-160.691	158.586	5.84198
91.5	-160.12	157.767	6.13411
92	-159.534	157.214	6.11062
92.5	-158.962	156.702	6.01722
93	-158.405	156.21	5.91434
93.5	-157.864	155.733	5.8074
94	-157.339	155.269	5.7094
94.5	-156.829	154.816	5.62721
95	-156.333	154.374	5.54514
95.5	-155.849	153.94	5.46842
96	-155.378	153.516	5.39716
96.5	-154.918	153.099	5.3314
97	-154.468	152.69	5.27182
97.5	-154.028	152.287	5.21607
98	-153.598	151.892	5.1651
98.5	-153.175	151.502	5.11842
99	-152.761	151.118	5.07547
99.5	-152.354	150.739	5.03623
100	-151.953	150.365	5.00021
100.5	-151.56	149.996	4.96716
101	-151.172	149.632	4.93709
101.5	-150.789	149.271	4.90966
102	-150.412	148.914	114.623
102.5	-150.601	155.326	665.637
103	-152.237	159.508	634.719
103.5	-154.031	161.017	610.066
104	-155.717	162.221	590.332
104.5	-157.286	163.34	573.588
105	-158.748	164.395	558.791
105.5	-160.113	165.393	545.376
106	-161.338	164.841	61.179
106.5	-161.447	159.746	6.36246
107	-160.872	158.294	7.46833
107.5	-160.3	159.76	554.742
108	-160.961	165.302	175.438
108.5	-161.431	160.595	8.20114
109	-160.952	158.514	7.07959
109.5	-160.35	158.834	539.507
110	-160.846	165.188	255.321
110.5	-161.463	161.134	9.71561
111	-161.049	158.726	6.6965
111.5	-160.443	158.151	471.673
112	-160.677	164.623	447.178
112.5	-161.467	162.003	14.0233
113	-161.161	158.998	6.29935
113.5	-160.574	158.164	212.676
114	-160.507	163.586	451.149
114.5	-161.226	161.758	13.9321
115	-160.931	158.83	5.81786
115.5	-160.36	158.005	6.11915
116	-159.774	157.449	6.10141
116.5	-159.2	156.935	6.01231
117	-158.642	156.442	5.91172
117.5	-158.1	155.964	5.81056
118	-157.574	155.499	5.7145
118.5	-157.062	155.045	5.6246
119	-156.565	154.601	5.54085
119.5	-156.08	154.167	5.46329
120	-155.608	153.741	5.39184
